# E (eV)  dos(E)    pdos(E)
  -3.634  0.454E-04  0.454E-04
  -3.624  0.709E-04  0.709E-04
  -3.614  0.110E-03  0.109E-03
  -3.604  0.167E-03  0.167E-03
  -3.594  0.253E-03  0.253E-03
  -3.584  0.379E-03  0.379E-03
  -3.574  0.562E-03  0.562E-03
  -3.564  0.824E-03  0.823E-03
  -3.554  0.119E-02  0.119E-02
  -3.544  0.172E-02  0.171E-02
  -3.534  0.244E-02  0.244E-02
  -3.524  0.343E-02  0.342E-02
  -3.514  0.476E-02  0.476E-02
  -3.504  0.656E-02  0.656E-02
  -3.494  0.894E-02  0.893E-02
  -3.484  0.121E-01  0.120E-01
  -3.474  0.161E-01  0.161E-01
  -3.464  0.213E-01  0.212E-01
  -3.454  0.278E-01  0.278E-01
  -3.444  0.360E-01  0.359E-01
  -3.434  0.461E-01  0.460E-01
  -3.424  0.584E-01  0.584E-01
  -3.414  0.733E-01  0.733E-01
  -3.404  0.911E-01  0.910E-01
  -3.394  0.112E+00  0.112E+00
  -3.384  0.136E+00  0.136E+00
  -3.374  0.165E+00  0.164E+00
  -3.364  0.196E+00  0.196E+00
  -3.354  0.232E+00  0.232E+00
  -3.344  0.272E+00  0.272E+00
  -3.334  0.315E+00  0.315E+00
  -3.324  0.362E+00  0.362E+00
  -3.314  0.412E+00  0.412E+00
  -3.304  0.464E+00  0.464E+00
  -3.294  0.518E+00  0.518E+00
  -3.284  0.574E+00  0.573E+00
  -3.274  0.629E+00  0.629E+00
  -3.264  0.684E+00  0.683E+00
  -3.254  0.737E+00  0.736E+00
  -3.244  0.787E+00  0.786E+00
  -3.234  0.834E+00  0.833E+00
  -3.224  0.876E+00  0.876E+00
  -3.214  0.913E+00  0.913E+00
  -3.204  0.945E+00  0.945E+00
  -3.194  0.971E+00  0.970E+00
  -3.184  0.990E+00  0.990E+00
  -3.174  0.100E+01  0.100E+01
  -3.164  0.101E+01  0.101E+01
  -3.154  0.101E+01  0.101E+01
  -3.144  0.101E+01  0.101E+01
  -3.134  0.998E+00  0.997E+00
  -3.124  0.984E+00  0.984E+00
  -3.114  0.967E+00  0.966E+00
  -3.104  0.946E+00  0.946E+00
  -3.094  0.923E+00  0.923E+00
  -3.084  0.899E+00  0.898E+00
  -3.074  0.873E+00  0.873E+00
  -3.064  0.847E+00  0.847E+00
  -3.054  0.821E+00  0.820E+00
  -3.044  0.795E+00  0.795E+00
  -3.034  0.770E+00  0.769E+00
  -3.024  0.746E+00  0.745E+00
  -3.014  0.723E+00  0.722E+00
  -3.004  0.701E+00  0.700E+00
  -2.994  0.680E+00  0.680E+00
  -2.984  0.661E+00  0.660E+00
  -2.974  0.643E+00  0.642E+00
  -2.964  0.626E+00  0.625E+00
  -2.954  0.610E+00  0.610E+00
  -2.944  0.596E+00  0.595E+00
  -2.934  0.582E+00  0.582E+00
  -2.924  0.570E+00  0.569E+00
  -2.914  0.558E+00  0.558E+00
  -2.904  0.547E+00  0.547E+00
  -2.894  0.537E+00  0.537E+00
  -2.884  0.528E+00  0.528E+00
  -2.874  0.519E+00  0.519E+00
  -2.864  0.511E+00  0.511E+00
  -2.854  0.503E+00  0.503E+00
  -2.844  0.496E+00  0.495E+00
  -2.834  0.489E+00  0.488E+00
  -2.824  0.482E+00  0.481E+00
  -2.814  0.475E+00  0.475E+00
  -2.804  0.468E+00  0.468E+00
  -2.794  0.462E+00  0.462E+00
  -2.784  0.456E+00  0.456E+00
  -2.774  0.450E+00  0.450E+00
  -2.764  0.445E+00  0.444E+00
  -2.754  0.439E+00  0.439E+00
  -2.744  0.434E+00  0.434E+00
  -2.734  0.429E+00  0.429E+00
  -2.724  0.425E+00  0.425E+00
  -2.714  0.421E+00  0.420E+00
  -2.704  0.417E+00  0.417E+00
  -2.694  0.413E+00  0.413E+00
  -2.684  0.410E+00  0.409E+00
  -2.674  0.406E+00  0.406E+00
  -2.664  0.403E+00  0.403E+00
  -2.654  0.400E+00  0.400E+00
  -2.644  0.397E+00  0.397E+00
  -2.634  0.394E+00  0.393E+00
  -2.624  0.390E+00  0.390E+00
  -2.614  0.387E+00  0.387E+00
  -2.604  0.383E+00  0.383E+00
  -2.594  0.379E+00  0.379E+00
  -2.584  0.375E+00  0.375E+00
  -2.574  0.371E+00  0.371E+00
  -2.564  0.368E+00  0.367E+00
  -2.554  0.364E+00  0.363E+00
  -2.544  0.360E+00  0.360E+00
  -2.534  0.357E+00  0.357E+00
  -2.524  0.354E+00  0.353E+00
  -2.514  0.351E+00  0.351E+00
  -2.504  0.349E+00  0.349E+00
  -2.494  0.347E+00  0.347E+00
  -2.484  0.345E+00  0.345E+00
  -2.474  0.344E+00  0.344E+00
  -2.464  0.343E+00  0.343E+00
  -2.454  0.342E+00  0.342E+00
  -2.444  0.342E+00  0.341E+00
  -2.434  0.341E+00  0.341E+00
  -2.424  0.340E+00  0.340E+00
  -2.414  0.339E+00  0.338E+00
  -2.404  0.337E+00  0.337E+00
  -2.394  0.335E+00  0.335E+00
  -2.384  0.333E+00  0.333E+00
  -2.374  0.330E+00  0.330E+00
  -2.364  0.327E+00  0.327E+00
  -2.354  0.324E+00  0.323E+00
  -2.344  0.320E+00  0.320E+00
  -2.334  0.316E+00  0.316E+00
  -2.324  0.313E+00  0.312E+00
  -2.314  0.309E+00  0.309E+00
  -2.304  0.306E+00  0.305E+00
  -2.294  0.302E+00  0.302E+00
  -2.284  0.300E+00  0.300E+00
  -2.274  0.298E+00  0.297E+00
  -2.264  0.296E+00  0.296E+00
  -2.254  0.295E+00  0.295E+00
  -2.244  0.294E+00  0.294E+00
  -2.234  0.294E+00  0.294E+00
  -2.224  0.294E+00  0.294E+00
  -2.214  0.295E+00  0.295E+00
  -2.204  0.296E+00  0.296E+00
  -2.194  0.297E+00  0.297E+00
  -2.184  0.298E+00  0.298E+00
  -2.174  0.299E+00  0.299E+00
  -2.164  0.300E+00  0.300E+00
  -2.154  0.301E+00  0.300E+00
  -2.144  0.300E+00  0.300E+00
  -2.134  0.300E+00  0.300E+00
  -2.124  0.298E+00  0.298E+00
  -2.114  0.297E+00  0.296E+00
  -2.104  0.294E+00  0.294E+00
  -2.094  0.291E+00  0.290E+00
  -2.084  0.287E+00  0.287E+00
  -2.074  0.283E+00  0.282E+00
  -2.064  0.278E+00  0.278E+00
  -2.054  0.273E+00  0.273E+00
  -2.044  0.268E+00  0.268E+00
  -2.034  0.264E+00  0.264E+00
  -2.024  0.259E+00  0.259E+00
  -2.014  0.256E+00  0.255E+00
  -2.004  0.253E+00  0.252E+00
  -1.994  0.250E+00  0.250E+00
  -1.984  0.249E+00  0.249E+00
  -1.974  0.248E+00  0.248E+00
  -1.964  0.249E+00  0.249E+00
  -1.954  0.251E+00  0.250E+00
  -1.944  0.253E+00  0.253E+00
  -1.934  0.256E+00  0.256E+00
  -1.924  0.260E+00  0.260E+00
  -1.914  0.264E+00  0.264E+00
  -1.904  0.269E+00  0.268E+00
  -1.894  0.273E+00  0.273E+00
  -1.884  0.277E+00  0.276E+00
  -1.874  0.280E+00  0.279E+00
  -1.864  0.282E+00  0.282E+00
  -1.854  0.283E+00  0.283E+00
  -1.844  0.283E+00  0.283E+00
  -1.834  0.282E+00  0.281E+00
  -1.824  0.279E+00  0.278E+00
  -1.814  0.275E+00  0.274E+00
  -1.804  0.269E+00  0.269E+00
  -1.794  0.263E+00  0.263E+00
  -1.784  0.256E+00  0.256E+00
  -1.774  0.248E+00  0.248E+00
  -1.764  0.240E+00  0.240E+00
  -1.754  0.233E+00  0.233E+00
  -1.744  0.226E+00  0.225E+00
  -1.734  0.219E+00  0.219E+00
  -1.724  0.214E+00  0.214E+00
  -1.714  0.210E+00  0.210E+00
  -1.704  0.208E+00  0.207E+00
  -1.694  0.207E+00  0.206E+00
  -1.684  0.207E+00  0.207E+00
  -1.674  0.210E+00  0.209E+00
  -1.664  0.213E+00  0.213E+00
  -1.654  0.219E+00  0.218E+00
  -1.644  0.225E+00  0.224E+00
  -1.634  0.232E+00  0.231E+00
  -1.624  0.239E+00  0.239E+00
  -1.614  0.246E+00  0.246E+00
  -1.604  0.253E+00  0.253E+00
  -1.594  0.259E+00  0.259E+00
  -1.584  0.264E+00  0.264E+00
  -1.574  0.268E+00  0.268E+00
  -1.564  0.271E+00  0.270E+00
  -1.554  0.271E+00  0.271E+00
  -1.544  0.270E+00  0.270E+00
  -1.534  0.268E+00  0.267E+00
  -1.524  0.263E+00  0.263E+00
  -1.514  0.257E+00  0.257E+00
  -1.504  0.250E+00  0.250E+00
  -1.494  0.243E+00  0.242E+00
  -1.484  0.234E+00  0.234E+00
  -1.474  0.225E+00  0.225E+00
  -1.464  0.217E+00  0.217E+00
  -1.454  0.209E+00  0.209E+00
  -1.444  0.202E+00  0.202E+00
  -1.434  0.196E+00  0.195E+00
  -1.424  0.191E+00  0.191E+00
  -1.414  0.188E+00  0.187E+00
  -1.404  0.186E+00  0.186E+00
  -1.394  0.185E+00  0.185E+00
  -1.384  0.187E+00  0.187E+00
  -1.374  0.189E+00  0.189E+00
  -1.364  0.193E+00  0.193E+00
  -1.354  0.198E+00  0.197E+00
  -1.344  0.203E+00  0.203E+00
  -1.334  0.209E+00  0.209E+00
  -1.324  0.215E+00  0.214E+00
  -1.314  0.220E+00  0.220E+00
  -1.304  0.226E+00  0.225E+00
  -1.294  0.230E+00  0.230E+00
  -1.284  0.234E+00  0.234E+00
  -1.274  0.237E+00  0.237E+00
  -1.264  0.239E+00  0.238E+00
  -1.254  0.239E+00  0.239E+00
  -1.244  0.239E+00  0.239E+00
  -1.234  0.238E+00  0.237E+00
  -1.224  0.235E+00  0.235E+00
  -1.214  0.232E+00  0.232E+00
  -1.204  0.228E+00  0.228E+00
  -1.194  0.224E+00  0.224E+00
  -1.184  0.220E+00  0.219E+00
  -1.174  0.215E+00  0.215E+00
  -1.164  0.211E+00  0.210E+00
  -1.154  0.206E+00  0.206E+00
  -1.144  0.203E+00  0.203E+00
  -1.134  0.200E+00  0.200E+00
  -1.124  0.198E+00  0.198E+00
  -1.114  0.196E+00  0.196E+00
  -1.104  0.196E+00  0.195E+00
  -1.094  0.196E+00  0.196E+00
  -1.084  0.197E+00  0.196E+00
  -1.074  0.198E+00  0.198E+00
  -1.064  0.199E+00  0.199E+00
  -1.054  0.201E+00  0.201E+00
  -1.044  0.203E+00  0.203E+00
  -1.034  0.204E+00  0.204E+00
  -1.024  0.206E+00  0.205E+00
  -1.014  0.206E+00  0.206E+00
  -1.004  0.206E+00  0.206E+00
  -0.994  0.205E+00  0.205E+00
  -0.984  0.204E+00  0.203E+00
  -0.974  0.201E+00  0.201E+00
  -0.964  0.199E+00  0.198E+00
  -0.954  0.195E+00  0.195E+00
  -0.944  0.191E+00  0.191E+00
  -0.934  0.188E+00  0.187E+00
  -0.924  0.184E+00  0.184E+00
  -0.914  0.180E+00  0.180E+00
  -0.904  0.177E+00  0.177E+00
  -0.894  0.175E+00  0.175E+00
  -0.884  0.174E+00  0.174E+00
  -0.874  0.173E+00  0.173E+00
  -0.864  0.174E+00  0.174E+00
  -0.854  0.176E+00  0.175E+00
  -0.844  0.178E+00  0.178E+00
  -0.834  0.182E+00  0.182E+00
  -0.824  0.187E+00  0.186E+00
  -0.814  0.192E+00  0.192E+00
  -0.804  0.198E+00  0.198E+00
  -0.794  0.204E+00  0.204E+00
  -0.784  0.211E+00  0.210E+00
  -0.774  0.217E+00  0.216E+00
  -0.764  0.222E+00  0.222E+00
  -0.754  0.228E+00  0.227E+00
  -0.744  0.232E+00  0.231E+00
  -0.734  0.235E+00  0.235E+00
  -0.724  0.237E+00  0.236E+00
  -0.714  0.237E+00  0.237E+00
  -0.704  0.236E+00  0.236E+00
  -0.694  0.234E+00  0.233E+00
  -0.684  0.229E+00  0.229E+00
  -0.674  0.224E+00  0.223E+00
  -0.664  0.216E+00  0.216E+00
  -0.654  0.208E+00  0.208E+00
  -0.644  0.199E+00  0.198E+00
  -0.634  0.188E+00  0.188E+00
  -0.624  0.178E+00  0.177E+00
  -0.614  0.167E+00  0.166E+00
  -0.604  0.156E+00  0.156E+00
  -0.594  0.146E+00  0.145E+00
  -0.584  0.136E+00  0.136E+00
  -0.574  0.128E+00  0.127E+00
  -0.564  0.121E+00  0.121E+00
  -0.554  0.115E+00  0.115E+00
  -0.544  0.112E+00  0.112E+00
  -0.534  0.111E+00  0.111E+00
  -0.524  0.112E+00  0.111E+00
  -0.514  0.115E+00  0.115E+00
  -0.504  0.120E+00  0.120E+00
  -0.494  0.127E+00  0.127E+00
  -0.484  0.137E+00  0.137E+00
  -0.474  0.148E+00  0.148E+00
  -0.464  0.160E+00  0.160E+00
  -0.454  0.174E+00  0.173E+00
  -0.444  0.188E+00  0.187E+00
  -0.434  0.202E+00  0.202E+00
  -0.424  0.216E+00  0.216E+00
  -0.414  0.229E+00  0.229E+00
  -0.404  0.241E+00  0.241E+00
  -0.394  0.252E+00  0.251E+00
  -0.384  0.260E+00  0.260E+00
  -0.374  0.266E+00  0.266E+00
  -0.364  0.270E+00  0.269E+00
  -0.354  0.271E+00  0.270E+00
  -0.344  0.269E+00  0.268E+00
  -0.334  0.264E+00  0.264E+00
  -0.324  0.257E+00  0.257E+00
  -0.314  0.248E+00  0.247E+00
  -0.304  0.236E+00  0.236E+00
  -0.294  0.223E+00  0.223E+00
  -0.284  0.209E+00  0.208E+00
  -0.274  0.193E+00  0.193E+00
  -0.264  0.178E+00  0.177E+00
  -0.254  0.162E+00  0.162E+00
  -0.244  0.147E+00  0.146E+00
  -0.234  0.132E+00  0.132E+00
  -0.224  0.119E+00  0.119E+00
  -0.214  0.107E+00  0.107E+00
  -0.204  0.975E-01  0.973E-01
  -0.194  0.895E-01  0.893E-01
  -0.184  0.836E-01  0.834E-01
  -0.174  0.799E-01  0.798E-01
  -0.164  0.785E-01  0.784E-01
  -0.154  0.794E-01  0.793E-01
  -0.144  0.825E-01  0.824E-01
  -0.134  0.878E-01  0.877E-01
  -0.124  0.952E-01  0.950E-01
  -0.114  0.104E+00  0.104E+00
  -0.104  0.115E+00  0.115E+00
  -0.094  0.128E+00  0.127E+00
  -0.084  0.141E+00  0.141E+00
  -0.074  0.155E+00  0.155E+00
  -0.064  0.170E+00  0.170E+00
  -0.054  0.185E+00  0.185E+00
  -0.044  0.199E+00  0.199E+00
  -0.034  0.213E+00  0.213E+00
  -0.024  0.226E+00  0.225E+00
  -0.014  0.237E+00  0.236E+00
  -0.004  0.246E+00  0.246E+00
   0.006  0.253E+00  0.253E+00
   0.016  0.258E+00  0.258E+00
   0.026  0.261E+00  0.260E+00
   0.036  0.261E+00  0.260E+00
   0.046  0.259E+00  0.258E+00
   0.056  0.254E+00  0.253E+00
   0.066  0.247E+00  0.246E+00
   0.076  0.238E+00  0.237E+00
   0.086  0.227E+00  0.226E+00
   0.096  0.214E+00  0.214E+00
   0.106  0.201E+00  0.201E+00
   0.116  0.187E+00  0.187E+00
   0.126  0.173E+00  0.173E+00
   0.136  0.159E+00  0.159E+00
   0.146  0.146E+00  0.145E+00
   0.156  0.133E+00  0.133E+00
   0.166  0.121E+00  0.121E+00
   0.176  0.111E+00  0.111E+00
   0.186  0.103E+00  0.103E+00
   0.196  0.961E-01  0.959E-01
   0.206  0.913E-01  0.911E-01
   0.216  0.885E-01  0.883E-01
   0.226  0.876E-01  0.874E-01
   0.236  0.886E-01  0.884E-01
   0.246  0.915E-01  0.913E-01
   0.256  0.961E-01  0.959E-01
   0.266  0.102E+00  0.102E+00
   0.276  0.110E+00  0.109E+00
   0.286  0.118E+00  0.118E+00
   0.296  0.127E+00  0.127E+00
   0.306  0.137E+00  0.137E+00
   0.316  0.147E+00  0.147E+00
   0.326  0.157E+00  0.156E+00
   0.336  0.166E+00  0.166E+00
   0.346  0.175E+00  0.175E+00
   0.356  0.183E+00  0.182E+00
   0.366  0.190E+00  0.189E+00
   0.376  0.195E+00  0.195E+00
   0.386  0.199E+00  0.199E+00
   0.396  0.202E+00  0.202E+00
   0.406  0.204E+00  0.203E+00
   0.416  0.204E+00  0.204E+00
   0.426  0.203E+00  0.203E+00
   0.436  0.201E+00  0.201E+00
   0.446  0.198E+00  0.198E+00
   0.456  0.194E+00  0.194E+00
   0.466  0.190E+00  0.190E+00
   0.476  0.185E+00  0.185E+00
   0.486  0.180E+00  0.180E+00
   0.496  0.175E+00  0.175E+00
   0.506  0.170E+00  0.169E+00
   0.516  0.164E+00  0.164E+00
   0.526  0.159E+00  0.159E+00
   0.536  0.154E+00  0.154E+00
   0.546  0.150E+00  0.149E+00
   0.556  0.146E+00  0.145E+00
   0.566  0.142E+00  0.141E+00
   0.576  0.138E+00  0.138E+00
   0.586  0.135E+00  0.135E+00
   0.596  0.133E+00  0.133E+00
   0.606  0.132E+00  0.131E+00
   0.616  0.131E+00  0.131E+00
   0.626  0.131E+00  0.131E+00
   0.636  0.132E+00  0.132E+00
   0.646  0.134E+00  0.133E+00
   0.656  0.136E+00  0.136E+00
   0.666  0.140E+00  0.139E+00
   0.676  0.144E+00  0.143E+00
   0.686  0.148E+00  0.148E+00
   0.696  0.153E+00  0.153E+00
   0.706  0.158E+00  0.158E+00
   0.716  0.163E+00  0.163E+00
   0.726  0.168E+00  0.168E+00
   0.736  0.172E+00  0.172E+00
   0.746  0.176E+00  0.175E+00
   0.756  0.179E+00  0.178E+00
   0.766  0.180E+00  0.180E+00
   0.776  0.181E+00  0.180E+00
   0.786  0.180E+00  0.179E+00
   0.796  0.178E+00  0.177E+00
   0.806  0.174E+00  0.174E+00
   0.816  0.169E+00  0.169E+00
   0.826  0.164E+00  0.163E+00
   0.836  0.157E+00  0.157E+00
   0.846  0.150E+00  0.150E+00
   0.856  0.143E+00  0.142E+00
   0.866  0.135E+00  0.135E+00
   0.876  0.127E+00  0.127E+00
   0.886  0.120E+00  0.120E+00
   0.896  0.114E+00  0.113E+00
   0.906  0.108E+00  0.108E+00
   0.916  0.103E+00  0.103E+00
   0.926  0.100E+00  0.998E-01
   0.936  0.981E-01  0.978E-01
   0.946  0.975E-01  0.972E-01
   0.956  0.984E-01  0.981E-01
   0.966  0.101E+00  0.100E+00
   0.976  0.104E+00  0.104E+00
   0.986  0.109E+00  0.109E+00
   0.996  0.115E+00  0.115E+00
   1.006  0.122E+00  0.122E+00
   1.016  0.130E+00  0.129E+00
   1.026  0.138E+00  0.138E+00
   1.036  0.147E+00  0.146E+00
   1.046  0.156E+00  0.155E+00
   1.056  0.164E+00  0.164E+00
   1.066  0.173E+00  0.172E+00
   1.076  0.181E+00  0.180E+00
   1.086  0.188E+00  0.187E+00
   1.096  0.195E+00  0.194E+00
   1.106  0.200E+00  0.200E+00
   1.116  0.205E+00  0.204E+00
   1.126  0.209E+00  0.208E+00
   1.136  0.211E+00  0.210E+00
   1.146  0.213E+00  0.212E+00
   1.156  0.213E+00  0.212E+00
   1.166  0.212E+00  0.211E+00
   1.176  0.209E+00  0.209E+00
   1.186  0.206E+00  0.205E+00
   1.196  0.201E+00  0.201E+00
   1.206  0.196E+00  0.195E+00
   1.216  0.189E+00  0.189E+00
   1.226  0.182E+00  0.181E+00
   1.236  0.173E+00  0.173E+00
   1.246  0.165E+00  0.164E+00
   1.256  0.155E+00  0.155E+00
   1.266  0.145E+00  0.145E+00
   1.276  0.135E+00  0.135E+00
   1.286  0.125E+00  0.125E+00
   1.296  0.115E+00  0.115E+00
   1.306  0.105E+00  0.105E+00
   1.316  0.958E-01  0.954E-01
   1.326  0.870E-01  0.867E-01
   1.336  0.791E-01  0.788E-01
   1.346  0.720E-01  0.718E-01
   1.356  0.660E-01  0.658E-01
   1.366  0.612E-01  0.610E-01
   1.376  0.577E-01  0.575E-01
   1.386  0.555E-01  0.553E-01
   1.396  0.549E-01  0.546E-01
   1.406  0.557E-01  0.554E-01
   1.416  0.580E-01  0.578E-01
   1.426  0.619E-01  0.616E-01
   1.436  0.673E-01  0.670E-01
   1.446  0.742E-01  0.738E-01
   1.456  0.824E-01  0.820E-01
   1.466  0.919E-01  0.915E-01
   1.476  0.103E+00  0.102E+00
   1.486  0.114E+00  0.114E+00
   1.496  0.126E+00  0.126E+00
   1.506  0.139E+00  0.139E+00
   1.516  0.152E+00  0.152E+00
   1.526  0.166E+00  0.165E+00
   1.536  0.178E+00  0.177E+00
   1.546  0.191E+00  0.190E+00
   1.556  0.202E+00  0.201E+00
   1.566  0.212E+00  0.211E+00
   1.576  0.221E+00  0.220E+00
   1.586  0.229E+00  0.228E+00
   1.596  0.234E+00  0.233E+00
   1.606  0.238E+00  0.237E+00
   1.616  0.240E+00  0.239E+00
   1.626  0.240E+00  0.239E+00
   1.636  0.238E+00  0.237E+00
   1.646  0.235E+00  0.233E+00
   1.656  0.229E+00  0.228E+00
   1.666  0.222E+00  0.221E+00
   1.676  0.213E+00  0.212E+00
   1.686  0.203E+00  0.203E+00
   1.696  0.193E+00  0.192E+00
   1.706  0.181E+00  0.180E+00
   1.716  0.169E+00  0.168E+00
   1.726  0.156E+00  0.155E+00
   1.736  0.144E+00  0.143E+00
   1.746  0.131E+00  0.131E+00
   1.756  0.119E+00  0.119E+00
   1.766  0.108E+00  0.107E+00
   1.776  0.972E-01  0.968E-01
   1.786  0.875E-01  0.871E-01
   1.796  0.789E-01  0.786E-01
   1.806  0.715E-01  0.711E-01
   1.816  0.653E-01  0.650E-01
   1.826  0.604E-01  0.601E-01
   1.836  0.568E-01  0.565E-01
   1.846  0.546E-01  0.543E-01
   1.856  0.536E-01  0.534E-01
   1.866  0.540E-01  0.537E-01
   1.876  0.555E-01  0.552E-01
   1.886  0.581E-01  0.577E-01
   1.896  0.617E-01  0.613E-01
   1.906  0.661E-01  0.657E-01
   1.916  0.713E-01  0.709E-01
   1.926  0.772E-01  0.767E-01
   1.936  0.835E-01  0.830E-01
   1.946  0.902E-01  0.897E-01
   1.956  0.972E-01  0.966E-01
   1.966  0.104E+00  0.104E+00
   1.976  0.112E+00  0.111E+00
   1.986  0.119E+00  0.118E+00
   1.996  0.126E+00  0.125E+00
   2.006  0.133E+00  0.132E+00
   2.016  0.140E+00  0.139E+00
   2.026  0.147E+00  0.146E+00
   2.036  0.154E+00  0.153E+00
   2.046  0.161E+00  0.160E+00
   2.056  0.167E+00  0.166E+00
   2.066  0.174E+00  0.173E+00
   2.076  0.180E+00  0.179E+00
   2.086  0.186E+00  0.185E+00
   2.096  0.191E+00  0.190E+00
   2.106  0.196E+00  0.194E+00
   2.116  0.200E+00  0.198E+00
   2.126  0.203E+00  0.202E+00
   2.136  0.205E+00  0.204E+00
   2.146  0.206E+00  0.204E+00
   2.156  0.205E+00  0.204E+00
   2.166  0.204E+00  0.202E+00
   2.176  0.200E+00  0.199E+00
   2.186  0.196E+00  0.195E+00
   2.196  0.190E+00  0.189E+00
   2.206  0.183E+00  0.182E+00
   2.216  0.175E+00  0.174E+00
   2.226  0.167E+00  0.166E+00
   2.236  0.157E+00  0.157E+00
   2.246  0.148E+00  0.147E+00
   2.256  0.138E+00  0.137E+00
   2.266  0.129E+00  0.128E+00
   2.276  0.120E+00  0.119E+00
   2.286  0.111E+00  0.111E+00
   2.296  0.104E+00  0.103E+00
   2.306  0.978E-01  0.972E-01
   2.316  0.927E-01  0.921E-01
   2.326  0.888E-01  0.882E-01
   2.336  0.861E-01  0.855E-01
   2.346  0.845E-01  0.839E-01
   2.356  0.841E-01  0.835E-01
   2.366  0.847E-01  0.841E-01
   2.376  0.861E-01  0.854E-01
   2.386  0.881E-01  0.875E-01
   2.396  0.906E-01  0.900E-01
   2.406  0.935E-01  0.928E-01
   2.416  0.964E-01  0.957E-01
   2.426  0.994E-01  0.986E-01
   2.436  0.102E+00  0.101E+00
   2.446  0.105E+00  0.104E+00
   2.456  0.107E+00  0.106E+00
   2.466  0.109E+00  0.108E+00
   2.476  0.110E+00  0.109E+00
   2.486  0.111E+00  0.111E+00
   2.496  0.112E+00  0.112E+00
   2.506  0.113E+00  0.112E+00
   2.516  0.114E+00  0.113E+00
   2.526  0.115E+00  0.114E+00
   2.536  0.115E+00  0.115E+00
   2.546  0.116E+00  0.115E+00
   2.556  0.117E+00  0.117E+00
   2.566  0.119E+00  0.118E+00
   2.576  0.120E+00  0.120E+00
   2.586  0.122E+00  0.121E+00
   2.596  0.124E+00  0.123E+00
   2.606  0.127E+00  0.126E+00
   2.616  0.129E+00  0.128E+00
   2.626  0.131E+00  0.131E+00
   2.636  0.134E+00  0.133E+00
   2.646  0.136E+00  0.135E+00
   2.656  0.139E+00  0.138E+00
   2.666  0.141E+00  0.140E+00
   2.676  0.143E+00  0.142E+00
   2.686  0.145E+00  0.144E+00
   2.696  0.147E+00  0.146E+00
   2.706  0.149E+00  0.148E+00
   2.716  0.150E+00  0.149E+00
   2.726  0.152E+00  0.151E+00
   2.736  0.153E+00  0.152E+00
   2.746  0.154E+00  0.153E+00
   2.756  0.155E+00  0.153E+00
   2.766  0.155E+00  0.154E+00
   2.776  0.156E+00  0.155E+00
   2.786  0.156E+00  0.155E+00
   2.796  0.156E+00  0.155E+00
   2.806  0.156E+00  0.155E+00
   2.816  0.156E+00  0.155E+00
   2.826  0.155E+00  0.154E+00
   2.836  0.154E+00  0.153E+00
   2.846  0.153E+00  0.152E+00
   2.856  0.152E+00  0.150E+00
   2.866  0.150E+00  0.149E+00
   2.876  0.148E+00  0.146E+00
   2.886  0.145E+00  0.144E+00
   2.896  0.142E+00  0.141E+00
   2.906  0.139E+00  0.137E+00
   2.916  0.135E+00  0.134E+00
   2.926  0.131E+00  0.130E+00
   2.936  0.127E+00  0.125E+00
   2.946  0.122E+00  0.121E+00
   2.956  0.118E+00  0.117E+00
   2.966  0.114E+00  0.113E+00
   2.976  0.109E+00  0.108E+00
   2.986  0.106E+00  0.105E+00
   2.996  0.102E+00  0.101E+00
   3.006  0.994E-01  0.985E-01
   3.016  0.971E-01  0.962E-01
   3.026  0.954E-01  0.946E-01
   3.036  0.945E-01  0.937E-01
   3.046  0.943E-01  0.935E-01
   3.056  0.947E-01  0.939E-01
   3.066  0.958E-01  0.950E-01
   3.076  0.974E-01  0.967E-01
   3.086  0.996E-01  0.988E-01
   3.096  0.102E+00  0.101E+00
   3.106  0.105E+00  0.104E+00
   3.116  0.108E+00  0.107E+00
   3.126  0.111E+00  0.110E+00
   3.136  0.114E+00  0.113E+00
   3.146  0.117E+00  0.116E+00
   3.156  0.120E+00  0.119E+00
   3.166  0.123E+00  0.122E+00
   3.176  0.125E+00  0.125E+00
   3.186  0.128E+00  0.127E+00
   3.196  0.131E+00  0.130E+00
   3.206  0.134E+00  0.133E+00
   3.216  0.137E+00  0.137E+00
   3.226  0.141E+00  0.140E+00
   3.236  0.144E+00  0.144E+00
   3.246  0.148E+00  0.148E+00
   3.256  0.152E+00  0.152E+00
   3.266  0.157E+00  0.156E+00
   3.276  0.161E+00  0.161E+00
   3.286  0.166E+00  0.166E+00
   3.296  0.170E+00  0.170E+00
   3.306  0.175E+00  0.175E+00
   3.316  0.179E+00  0.179E+00
   3.326  0.183E+00  0.184E+00
   3.336  0.186E+00  0.187E+00
   3.346  0.188E+00  0.191E+00
   3.356  0.190E+00  0.193E+00
   3.366  0.192E+00  0.196E+00
   3.376  0.192E+00  0.197E+00
   3.386  0.192E+00  0.198E+00
   3.396  0.192E+00  0.199E+00
   3.406  0.190E+00  0.199E+00
   3.416  0.189E+00  0.199E+00
   3.426  0.187E+00  0.199E+00
   3.436  0.184E+00  0.198E+00
   3.446  0.182E+00  0.197E+00
   3.456  0.180E+00  0.197E+00
   3.466  0.177E+00  0.196E+00
   3.476  0.175E+00  0.196E+00
   3.486  0.173E+00  0.195E+00
   3.496  0.171E+00  0.195E+00
   3.506  0.170E+00  0.195E+00
   3.516  0.168E+00  0.194E+00
   3.526  0.167E+00  0.194E+00
   3.536  0.166E+00  0.193E+00
   3.546  0.165E+00  0.192E+00
   3.556  0.164E+00  0.191E+00
   3.566  0.163E+00  0.190E+00
   3.576  0.162E+00  0.188E+00
   3.586  0.161E+00  0.186E+00
   3.596  0.160E+00  0.183E+00
   3.606  0.158E+00  0.180E+00
   3.616  0.156E+00  0.177E+00
   3.626  0.154E+00  0.173E+00
   3.636  0.151E+00  0.168E+00
   3.646  0.148E+00  0.164E+00
   3.656  0.145E+00  0.158E+00
   3.666  0.141E+00  0.153E+00
   3.676  0.137E+00  0.147E+00
   3.686  0.133E+00  0.142E+00
   3.696  0.129E+00  0.136E+00
   3.706  0.125E+00  0.131E+00
   3.716  0.121E+00  0.126E+00
   3.726  0.117E+00  0.121E+00
   3.736  0.113E+00  0.116E+00
   3.746  0.110E+00  0.112E+00
   3.756  0.108E+00  0.109E+00
   3.766  0.105E+00  0.106E+00
   3.776  0.104E+00  0.104E+00
   3.786  0.103E+00  0.103E+00
   3.796  0.102E+00  0.102E+00
   3.806  0.102E+00  0.102E+00
   3.816  0.102E+00  0.102E+00
   3.826  0.103E+00  0.102E+00
   3.836  0.104E+00  0.103E+00
   3.846  0.104E+00  0.103E+00
   3.856  0.105E+00  0.104E+00
   3.866  0.105E+00  0.104E+00
   3.876  0.106E+00  0.105E+00
   3.886  0.106E+00  0.105E+00
   3.896  0.105E+00  0.104E+00
   3.906  0.105E+00  0.104E+00
   3.916  0.104E+00  0.103E+00
   3.926  0.103E+00  0.102E+00
   3.936  0.102E+00  0.101E+00
   3.946  0.101E+00  0.101E+00
   3.956  0.998E-01  0.100E+00
   3.966  0.994E-01  0.100E+00
   3.976  0.995E-01  0.100E+00
   3.986  0.100E+00  0.101E+00
   3.996  0.101E+00  0.103E+00
   4.006  0.103E+00  0.105E+00
   4.016  0.106E+00  0.109E+00
   4.026  0.110E+00  0.112E+00
   4.036  0.114E+00  0.117E+00
   4.046  0.119E+00  0.122E+00
   4.056  0.124E+00  0.128E+00
   4.066  0.129E+00  0.133E+00
   4.076  0.135E+00  0.139E+00
   4.086  0.141E+00  0.145E+00
   4.096  0.147E+00  0.151E+00
   4.106  0.152E+00  0.156E+00
   4.116  0.157E+00  0.161E+00
   4.126  0.161E+00  0.166E+00
   4.136  0.165E+00  0.169E+00
   4.146  0.168E+00  0.172E+00
   4.156  0.170E+00  0.174E+00
   4.166  0.172E+00  0.175E+00
   4.176  0.172E+00  0.175E+00
   4.186  0.172E+00  0.175E+00
   4.196  0.172E+00  0.174E+00
   4.206  0.170E+00  0.172E+00
   4.216  0.168E+00  0.170E+00
   4.226  0.166E+00  0.167E+00
   4.236  0.163E+00  0.164E+00
   4.246  0.161E+00  0.161E+00
   4.256  0.157E+00  0.157E+00
   4.266  0.154E+00  0.154E+00
   4.276  0.151E+00  0.151E+00
   4.286  0.148E+00  0.147E+00
   4.296  0.145E+00  0.144E+00
   4.306  0.141E+00  0.140E+00
   4.316  0.138E+00  0.137E+00
   4.326  0.134E+00  0.133E+00
   4.336  0.131E+00  0.129E+00
   4.346  0.127E+00  0.125E+00
   4.356  0.122E+00  0.121E+00
   4.366  0.118E+00  0.116E+00
   4.376  0.113E+00  0.111E+00
   4.386  0.107E+00  0.106E+00
   4.396  0.101E+00  0.100E+00
   4.406  0.953E-01  0.939E-01
   4.416  0.889E-01  0.877E-01
   4.426  0.824E-01  0.812E-01
   4.436  0.759E-01  0.748E-01
   4.446  0.693E-01  0.683E-01
   4.456  0.629E-01  0.620E-01
   4.466  0.568E-01  0.560E-01
   4.476  0.511E-01  0.504E-01
   4.486  0.459E-01  0.453E-01
   4.496  0.413E-01  0.408E-01
   4.506  0.375E-01  0.370E-01
   4.516  0.345E-01  0.341E-01
   4.526  0.325E-01  0.321E-01
   4.536  0.315E-01  0.311E-01
   4.546  0.316E-01  0.313E-01
   4.556  0.329E-01  0.326E-01
   4.566  0.355E-01  0.353E-01
   4.576  0.394E-01  0.392E-01
   4.586  0.447E-01  0.446E-01
   4.596  0.515E-01  0.514E-01
   4.606  0.597E-01  0.596E-01
   4.616  0.694E-01  0.693E-01
   4.626  0.805E-01  0.804E-01
   4.636  0.929E-01  0.929E-01
   4.646  0.106E+00  0.107E+00
   4.656  0.121E+00  0.121E+00
   4.666  0.137E+00  0.137E+00
   4.676  0.153E+00  0.153E+00
   4.686  0.169E+00  0.170E+00
   4.696  0.186E+00  0.186E+00
   4.706  0.202E+00  0.203E+00
   4.716  0.218E+00  0.218E+00
   4.726  0.232E+00  0.233E+00
   4.736  0.245E+00  0.246E+00
   4.746  0.257E+00  0.258E+00
   4.756  0.267E+00  0.268E+00
   4.766  0.275E+00  0.276E+00
   4.776  0.281E+00  0.282E+00
   4.786  0.285E+00  0.287E+00
   4.796  0.287E+00  0.289E+00
   4.806  0.288E+00  0.290E+00
   4.816  0.287E+00  0.289E+00
   4.826  0.285E+00  0.287E+00
   4.836  0.283E+00  0.285E+00
   4.846  0.281E+00  0.283E+00
   4.856  0.279E+00  0.280E+00
   4.866  0.277E+00  0.279E+00
   4.876  0.277E+00  0.278E+00
   4.886  0.278E+00  0.279E+00
   4.896  0.280E+00  0.281E+00
   4.906  0.284E+00  0.285E+00
   4.916  0.290E+00  0.291E+00
   4.926  0.297E+00  0.298E+00
   4.936  0.306E+00  0.307E+00
   4.946  0.316E+00  0.316E+00
   4.956  0.326E+00  0.327E+00
   4.966  0.338E+00  0.338E+00
   4.976  0.349E+00  0.349E+00
   4.986  0.360E+00  0.360E+00
   4.996  0.370E+00  0.370E+00
   5.006  0.379E+00  0.379E+00
   5.016  0.387E+00  0.387E+00
   5.026  0.393E+00  0.393E+00
   5.036  0.398E+00  0.397E+00
   5.046  0.400E+00  0.400E+00
   5.056  0.401E+00  0.401E+00
   5.066  0.401E+00  0.400E+00
   5.076  0.398E+00  0.398E+00
   5.086  0.395E+00  0.394E+00
   5.096  0.390E+00  0.390E+00
   5.106  0.385E+00  0.384E+00
   5.116  0.379E+00  0.378E+00
   5.126  0.372E+00  0.372E+00
   5.136  0.366E+00  0.365E+00
   5.146  0.360E+00  0.359E+00
   5.156  0.354E+00  0.353E+00
   5.166  0.349E+00  0.347E+00
   5.176  0.344E+00  0.342E+00
   5.186  0.339E+00  0.338E+00
   5.196  0.335E+00  0.334E+00
   5.206  0.332E+00  0.331E+00
   5.216  0.329E+00  0.327E+00
   5.226  0.326E+00  0.325E+00
   5.236  0.323E+00  0.322E+00
   5.246  0.321E+00  0.319E+00
   5.256  0.318E+00  0.316E+00
   5.266  0.315E+00  0.313E+00
   5.276  0.312E+00  0.310E+00
   5.286  0.308E+00  0.306E+00
   5.296  0.304E+00  0.302E+00
   5.306  0.299E+00  0.298E+00
   5.316  0.295E+00  0.293E+00
   5.326  0.290E+00  0.288E+00
   5.336  0.285E+00  0.283E+00
   5.346  0.279E+00  0.279E+00
   5.356  0.274E+00  0.274E+00
   5.366  0.270E+00  0.269E+00
   5.376  0.266E+00  0.265E+00
   5.386  0.262E+00  0.262E+00
   5.396  0.259E+00  0.259E+00
   5.406  0.256E+00  0.257E+00
   5.416  0.254E+00  0.255E+00
   5.426  0.253E+00  0.254E+00
   5.436  0.252E+00  0.254E+00
   5.446  0.252E+00  0.253E+00
   5.456  0.252E+00  0.254E+00
   5.466  0.252E+00  0.254E+00
   5.476  0.252E+00  0.254E+00
   5.486  0.252E+00  0.255E+00
   5.496  0.252E+00  0.255E+00
   5.506  0.251E+00  0.254E+00
   5.516  0.250E+00  0.253E+00
   5.526  0.249E+00  0.252E+00
   5.536  0.247E+00  0.250E+00
   5.546  0.245E+00  0.248E+00
   5.556  0.242E+00  0.245E+00
   5.566  0.239E+00  0.242E+00
   5.576  0.236E+00  0.239E+00
   5.586  0.233E+00  0.235E+00
   5.596  0.230E+00  0.232E+00
   5.606  0.227E+00  0.229E+00
   5.616  0.224E+00  0.226E+00
   5.626  0.222E+00  0.223E+00
   5.636  0.220E+00  0.221E+00
   5.646  0.219E+00  0.220E+00
   5.656  0.218E+00  0.218E+00
   5.666  0.218E+00  0.218E+00
   5.676  0.218E+00  0.217E+00
   5.686  0.218E+00  0.217E+00
   5.696  0.218E+00  0.218E+00
   5.706  0.219E+00  0.218E+00
   5.716  0.220E+00  0.219E+00
   5.726  0.220E+00  0.219E+00
   5.736  0.220E+00  0.219E+00
   5.746  0.220E+00  0.219E+00
   5.756  0.220E+00  0.218E+00
   5.766  0.218E+00  0.217E+00
   5.776  0.217E+00  0.215E+00
   5.786  0.214E+00  0.212E+00
   5.796  0.210E+00  0.209E+00
   5.806  0.206E+00  0.205E+00
   5.816  0.201E+00  0.200E+00
   5.826  0.196E+00  0.194E+00
   5.836  0.190E+00  0.188E+00
   5.846  0.183E+00  0.182E+00
   5.856  0.176E+00  0.175E+00
   5.866  0.169E+00  0.168E+00
   5.876  0.162E+00  0.161E+00
   5.886  0.155E+00  0.154E+00
   5.896  0.149E+00  0.148E+00
   5.906  0.143E+00  0.142E+00
   5.916  0.137E+00  0.136E+00
   5.926  0.132E+00  0.132E+00
   5.936  0.128E+00  0.127E+00
   5.946  0.125E+00  0.124E+00
   5.956  0.122E+00  0.121E+00
   5.966  0.119E+00  0.119E+00
   5.976  0.117E+00  0.117E+00
   5.986  0.116E+00  0.115E+00
   5.996  0.114E+00  0.114E+00
   6.006  0.113E+00  0.113E+00
   6.016  0.112E+00  0.112E+00
   6.026  0.111E+00  0.111E+00
   6.036  0.109E+00  0.110E+00
   6.046  0.108E+00  0.110E+00
   6.056  0.107E+00  0.109E+00
   6.066  0.105E+00  0.109E+00
   6.076  0.104E+00  0.109E+00
   6.086  0.103E+00  0.110E+00
   6.096  0.103E+00  0.112E+00
   6.106  0.103E+00  0.115E+00
   6.116  0.105E+00  0.120E+00
   6.126  0.108E+00  0.127E+00
   6.136  0.112E+00  0.136E+00
   6.146  0.117E+00  0.148E+00
   6.156  0.125E+00  0.162E+00
   6.166  0.134E+00  0.180E+00
   6.176  0.145E+00  0.200E+00
   6.186  0.159E+00  0.224E+00
   6.196  0.174E+00  0.251E+00
   6.206  0.191E+00  0.282E+00
   6.216  0.209E+00  0.315E+00
   6.226  0.229E+00  0.350E+00
   6.236  0.250E+00  0.387E+00
   6.246  0.272E+00  0.426E+00
   6.256  0.294E+00  0.466E+00
   6.266  0.316E+00  0.507E+00
   6.276  0.337E+00  0.547E+00
   6.286  0.357E+00  0.585E+00
   6.296  0.377E+00  0.623E+00
   6.306  0.395E+00  0.657E+00
   6.316  0.411E+00  0.690E+00
   6.326  0.425E+00  0.719E+00
   6.336  0.437E+00  0.744E+00
   6.346  0.447E+00  0.766E+00
   6.356  0.455E+00  0.784E+00
   6.366  0.461E+00  0.799E+00
   6.376  0.466E+00  0.811E+00
   6.386  0.468E+00  0.819E+00
   6.396  0.470E+00  0.824E+00
   6.406  0.470E+00  0.828E+00
   6.416  0.470E+00  0.829E+00
   6.426  0.469E+00  0.829E+00
   6.436  0.468E+00  0.828E+00
   6.446  0.467E+00  0.826E+00
   6.456  0.466E+00  0.823E+00
   6.466  0.464E+00  0.820E+00
   6.476  0.463E+00  0.817E+00
   6.486  0.461E+00  0.813E+00
   6.496  0.460E+00  0.808E+00
   6.506  0.458E+00  0.803E+00
   6.516  0.455E+00  0.797E+00
   6.526  0.452E+00  0.790E+00
   6.536  0.448E+00  0.781E+00
   6.546  0.443E+00  0.771E+00
   6.556  0.437E+00  0.759E+00
   6.566  0.430E+00  0.746E+00
   6.576  0.422E+00  0.731E+00
   6.586  0.413E+00  0.714E+00
   6.596  0.403E+00  0.696E+00
   6.606  0.393E+00  0.677E+00
   6.616  0.382E+00  0.658E+00
   6.626  0.371E+00  0.638E+00
   6.636  0.360E+00  0.618E+00
   6.646  0.350E+00  0.599E+00
   6.656  0.340E+00  0.580E+00
   6.666  0.330E+00  0.563E+00
   6.676  0.322E+00  0.547E+00
   6.686  0.315E+00  0.533E+00
   6.696  0.308E+00  0.520E+00
   6.706  0.303E+00  0.509E+00
   6.716  0.298E+00  0.500E+00
   6.726  0.295E+00  0.492E+00
   6.736  0.292E+00  0.486E+00
   6.746  0.290E+00  0.481E+00
   6.756  0.289E+00  0.478E+00
   6.766  0.289E+00  0.475E+00
   6.776  0.289E+00  0.474E+00
   6.786  0.289E+00  0.473E+00
   6.796  0.290E+00  0.473E+00
   6.806  0.292E+00  0.474E+00
   6.816  0.294E+00  0.477E+00
   6.826  0.297E+00  0.480E+00
   6.836  0.300E+00  0.484E+00
   6.846  0.305E+00  0.490E+00
   6.856  0.310E+00  0.497E+00
   6.866  0.317E+00  0.505E+00
   6.876  0.325E+00  0.516E+00
   6.886  0.334E+00  0.528E+00
   6.896  0.344E+00  0.541E+00
   6.906  0.355E+00  0.556E+00
   6.916  0.367E+00  0.571E+00
   6.926  0.380E+00  0.588E+00
   6.936  0.393E+00  0.604E+00
   6.946  0.407E+00  0.620E+00
   6.956  0.419E+00  0.635E+00
   6.966  0.431E+00  0.649E+00
   6.976  0.441E+00  0.659E+00
   6.986  0.449E+00  0.667E+00
   6.996  0.454E+00  0.671E+00
   7.006  0.457E+00  0.671E+00
   7.016  0.457E+00  0.667E+00
   7.026  0.453E+00  0.658E+00
   7.036  0.447E+00  0.645E+00
   7.046  0.437E+00  0.626E+00
   7.056  0.423E+00  0.604E+00
   7.066  0.407E+00  0.577E+00
   7.076  0.388E+00  0.548E+00
   7.086  0.367E+00  0.515E+00
   7.096  0.344E+00  0.481E+00
   7.106  0.321E+00  0.445E+00
   7.116  0.296E+00  0.409E+00
   7.126  0.272E+00  0.373E+00
   7.136  0.248E+00  0.338E+00
   7.146  0.225E+00  0.305E+00
   7.156  0.203E+00  0.274E+00
   7.166  0.184E+00  0.246E+00
   7.176  0.166E+00  0.221E+00
   7.186  0.150E+00  0.198E+00
   7.196  0.137E+00  0.179E+00
   7.206  0.126E+00  0.164E+00
   7.216  0.117E+00  0.151E+00
   7.226  0.110E+00  0.142E+00
   7.236  0.105E+00  0.135E+00
   7.246  0.102E+00  0.130E+00
   7.256  0.101E+00  0.128E+00
   7.266  0.101E+00  0.127E+00
   7.276  0.101E+00  0.128E+00
   7.286  0.103E+00  0.130E+00
   7.296  0.105E+00  0.133E+00
   7.306  0.108E+00  0.136E+00
   7.316  0.111E+00  0.141E+00
   7.326  0.115E+00  0.145E+00
   7.336  0.119E+00  0.151E+00
   7.346  0.123E+00  0.156E+00
   7.356  0.128E+00  0.163E+00
   7.366  0.133E+00  0.170E+00
   7.376  0.139E+00  0.178E+00
   7.386  0.145E+00  0.188E+00
   7.396  0.153E+00  0.199E+00
   7.406  0.162E+00  0.211E+00
   7.416  0.172E+00  0.226E+00
   7.426  0.184E+00  0.242E+00
   7.436  0.197E+00  0.260E+00
   7.446  0.211E+00  0.280E+00
   7.456  0.226E+00  0.301E+00
   7.466  0.242E+00  0.324E+00
   7.476  0.259E+00  0.348E+00
   7.486  0.277E+00  0.372E+00
   7.496  0.295E+00  0.397E+00
   7.506  0.312E+00  0.421E+00
   7.516  0.329E+00  0.444E+00
   7.526  0.345E+00  0.466E+00
   7.536  0.359E+00  0.486E+00
   7.546  0.371E+00  0.503E+00
   7.556  0.382E+00  0.517E+00
   7.566  0.390E+00  0.528E+00
   7.576  0.395E+00  0.536E+00
   7.586  0.398E+00  0.539E+00
   7.596  0.398E+00  0.539E+00
   7.606  0.395E+00  0.535E+00
   7.616  0.389E+00  0.527E+00
   7.626  0.381E+00  0.515E+00
   7.636  0.370E+00  0.501E+00
   7.646  0.358E+00  0.483E+00
   7.656  0.344E+00  0.463E+00
   7.666  0.329E+00  0.442E+00
   7.676  0.313E+00  0.419E+00
   7.686  0.296E+00  0.395E+00
   7.696  0.280E+00  0.371E+00
   7.706  0.264E+00  0.348E+00
   7.716  0.249E+00  0.326E+00
   7.726  0.234E+00  0.304E+00
   7.736  0.222E+00  0.285E+00
   7.746  0.211E+00  0.268E+00
   7.756  0.202E+00  0.253E+00
   7.766  0.195E+00  0.241E+00
   7.776  0.190E+00  0.231E+00
   7.786  0.187E+00  0.225E+00
   7.796  0.186E+00  0.220E+00
   7.806  0.187E+00  0.219E+00
   7.816  0.190E+00  0.219E+00
   7.826  0.194E+00  0.222E+00
   7.836  0.200E+00  0.226E+00
   7.846  0.207E+00  0.232E+00
   7.856  0.215E+00  0.240E+00
   7.866  0.223E+00  0.248E+00
   7.876  0.232E+00  0.256E+00
   7.886  0.240E+00  0.265E+00
   7.896  0.249E+00  0.274E+00
   7.906  0.257E+00  0.283E+00
   7.916  0.264E+00  0.291E+00
   7.926  0.271E+00  0.298E+00
   7.936  0.277E+00  0.305E+00
   7.946  0.282E+00  0.311E+00
   7.956  0.286E+00  0.315E+00
   7.966  0.288E+00  0.319E+00
   7.976  0.290E+00  0.322E+00
   7.986  0.291E+00  0.323E+00
   7.996  0.290E+00  0.324E+00
   8.006  0.288E+00  0.323E+00
   8.016  0.285E+00  0.322E+00
   8.026  0.282E+00  0.320E+00
   8.036  0.278E+00  0.317E+00
   8.046  0.273E+00  0.314E+00
   8.056  0.267E+00  0.310E+00
   8.066  0.261E+00  0.306E+00
   8.076  0.256E+00  0.303E+00
   8.086  0.250E+00  0.300E+00
   8.096  0.245E+00  0.296E+00
   8.106  0.239E+00  0.294E+00
   8.116  0.235E+00  0.292E+00
   8.126  0.231E+00  0.290E+00
   8.136  0.227E+00  0.289E+00
   8.146  0.224E+00  0.288E+00
   8.156  0.221E+00  0.287E+00
   8.166  0.219E+00  0.286E+00
   8.176  0.217E+00  0.285E+00
   8.186  0.214E+00  0.284E+00
   8.196  0.212E+00  0.282E+00
   8.206  0.209E+00  0.279E+00
   8.216  0.206E+00  0.275E+00
   8.226  0.202E+00  0.270E+00
   8.236  0.197E+00  0.264E+00
   8.246  0.191E+00  0.256E+00
   8.256  0.185E+00  0.247E+00
   8.266  0.178E+00  0.237E+00
   8.276  0.170E+00  0.226E+00
   8.286  0.162E+00  0.214E+00
   8.296  0.153E+00  0.202E+00
   8.306  0.144E+00  0.189E+00
   8.316  0.135E+00  0.177E+00
   8.326  0.126E+00  0.165E+00
   8.336  0.118E+00  0.154E+00
   8.346  0.111E+00  0.144E+00
   8.356  0.105E+00  0.135E+00
   8.366  0.998E-01  0.128E+00
   8.376  0.962E-01  0.122E+00
   8.386  0.940E-01  0.119E+00
   8.396  0.935E-01  0.117E+00
   8.406  0.947E-01  0.118E+00
   8.416  0.975E-01  0.121E+00
   8.426  0.102E+00  0.125E+00
   8.436  0.108E+00  0.132E+00
   8.446  0.116E+00  0.140E+00
   8.456  0.125E+00  0.150E+00
   8.466  0.135E+00  0.161E+00
   8.476  0.146E+00  0.173E+00
   8.486  0.159E+00  0.186E+00
   8.496  0.171E+00  0.199E+00
   8.506  0.185E+00  0.213E+00
   8.516  0.198E+00  0.226E+00
   8.526  0.212E+00  0.240E+00
   8.536  0.225E+00  0.252E+00
   8.546  0.238E+00  0.264E+00
   8.556  0.250E+00  0.275E+00
   8.566  0.262E+00  0.285E+00
   8.576  0.272E+00  0.294E+00
   8.586  0.281E+00  0.301E+00
   8.596  0.289E+00  0.307E+00
   8.606  0.295E+00  0.311E+00
   8.616  0.300E+00  0.314E+00
   8.626  0.303E+00  0.315E+00
   8.636  0.305E+00  0.316E+00
   8.646  0.305E+00  0.314E+00
   8.656  0.303E+00  0.312E+00
   8.666  0.300E+00  0.309E+00
   8.676  0.296E+00  0.305E+00
   8.686  0.290E+00  0.300E+00
   8.696  0.284E+00  0.294E+00
   8.706  0.277E+00  0.289E+00
   8.716  0.269E+00  0.283E+00
   8.726  0.260E+00  0.277E+00
   8.736  0.252E+00  0.272E+00
   8.746  0.243E+00  0.266E+00
   8.756  0.235E+00  0.261E+00
   8.766  0.227E+00  0.257E+00
   8.776  0.219E+00  0.253E+00
   8.786  0.212E+00  0.249E+00
   8.796  0.206E+00  0.246E+00
   8.806  0.200E+00  0.244E+00
   8.816  0.195E+00  0.242E+00
   8.826  0.191E+00  0.240E+00
   8.836  0.188E+00  0.239E+00
   8.846  0.186E+00  0.238E+00
   8.856  0.184E+00  0.237E+00
   8.866  0.183E+00  0.237E+00
   8.876  0.182E+00  0.237E+00
   8.886  0.182E+00  0.237E+00
   8.896  0.183E+00  0.238E+00
   8.906  0.184E+00  0.239E+00
   8.916  0.185E+00  0.239E+00
   8.926  0.186E+00  0.240E+00
   8.936  0.188E+00  0.241E+00
   8.946  0.189E+00  0.241E+00
   8.956  0.190E+00  0.241E+00
   8.966  0.191E+00  0.241E+00
   8.976  0.191E+00  0.240E+00
   8.986  0.191E+00  0.239E+00
   8.996  0.189E+00  0.236E+00
   9.006  0.187E+00  0.233E+00
   9.016  0.185E+00  0.229E+00
   9.026  0.181E+00  0.224E+00
   9.036  0.176E+00  0.217E+00
   9.046  0.171E+00  0.210E+00
   9.056  0.164E+00  0.202E+00
   9.066  0.157E+00  0.193E+00
   9.076  0.150E+00  0.183E+00
   9.086  0.142E+00  0.173E+00
   9.096  0.135E+00  0.163E+00
   9.106  0.127E+00  0.152E+00
   9.116  0.120E+00  0.142E+00
   9.126  0.113E+00  0.133E+00
   9.136  0.107E+00  0.124E+00
   9.146  0.103E+00  0.116E+00
   9.156  0.992E-01  0.110E+00
   9.166  0.969E-01  0.104E+00
   9.176  0.962E-01  0.101E+00
   9.186  0.969E-01  0.986E-01
   9.196  0.992E-01  0.981E-01
   9.206  0.103E+00  0.993E-01
   9.216  0.108E+00  0.102E+00
   9.226  0.115E+00  0.106E+00
   9.236  0.122E+00  0.112E+00
   9.246  0.131E+00  0.119E+00
   9.256  0.140E+00  0.127E+00
   9.266  0.149E+00  0.136E+00
   9.276  0.159E+00  0.145E+00
   9.286  0.169E+00  0.155E+00
   9.296  0.178E+00  0.165E+00
   9.306  0.187E+00  0.174E+00
   9.316  0.195E+00  0.184E+00
   9.326  0.202E+00  0.193E+00
   9.336  0.208E+00  0.202E+00
   9.346  0.214E+00  0.210E+00
   9.356  0.218E+00  0.218E+00
   9.366  0.222E+00  0.225E+00
   9.376  0.225E+00  0.232E+00
   9.386  0.227E+00  0.239E+00
   9.396  0.229E+00  0.245E+00
   9.406  0.230E+00  0.251E+00
   9.416  0.232E+00  0.257E+00
   9.426  0.234E+00  0.263E+00
   9.436  0.235E+00  0.269E+00
   9.446  0.237E+00  0.274E+00
   9.456  0.240E+00  0.280E+00
   9.466  0.242E+00  0.286E+00
   9.476  0.245E+00  0.292E+00
   9.486  0.248E+00  0.297E+00
   9.496  0.252E+00  0.302E+00
   9.506  0.255E+00  0.307E+00
   9.516  0.258E+00  0.311E+00
   9.526  0.260E+00  0.314E+00
   9.536  0.262E+00  0.316E+00
   9.546  0.263E+00  0.317E+00
   9.556  0.264E+00  0.317E+00
   9.566  0.263E+00  0.315E+00
   9.576  0.262E+00  0.313E+00
   9.586  0.259E+00  0.309E+00
   9.596  0.256E+00  0.304E+00
   9.606  0.251E+00  0.298E+00
   9.616  0.246E+00  0.291E+00
   9.626  0.240E+00  0.283E+00
   9.636  0.233E+00  0.274E+00
   9.646  0.226E+00  0.265E+00
   9.656  0.219E+00  0.256E+00
   9.666  0.211E+00  0.247E+00
   9.676  0.203E+00  0.237E+00
   9.686  0.195E+00  0.228E+00
   9.696  0.187E+00  0.219E+00
   9.706  0.179E+00  0.209E+00
   9.716  0.172E+00  0.200E+00
   9.726  0.165E+00  0.192E+00
   9.736  0.157E+00  0.183E+00
   9.746  0.150E+00  0.174E+00
   9.756  0.144E+00  0.166E+00
   9.766  0.137E+00  0.158E+00
   9.776  0.130E+00  0.149E+00
   9.786  0.124E+00  0.141E+00
   9.796  0.118E+00  0.133E+00
   9.806  0.112E+00  0.125E+00
   9.816  0.107E+00  0.117E+00
   9.826  0.102E+00  0.110E+00
   9.836  0.978E-01  0.103E+00
   9.846  0.942E-01  0.964E-01
   9.856  0.912E-01  0.904E-01
   9.866  0.890E-01  0.851E-01
   9.876  0.876E-01  0.806E-01
   9.886  0.872E-01  0.769E-01
   9.896  0.876E-01  0.741E-01
   9.906  0.889E-01  0.723E-01
   9.916  0.910E-01  0.715E-01
   9.926  0.939E-01  0.717E-01
   9.936  0.976E-01  0.730E-01
   9.946  0.102E+00  0.753E-01
   9.956  0.107E+00  0.787E-01
   9.966  0.112E+00  0.833E-01
   9.976  0.118E+00  0.889E-01
   9.986  0.125E+00  0.957E-01
   9.996  0.132E+00  0.104E+00
  10.006  0.139E+00  0.113E+00
  10.016  0.147E+00  0.123E+00
  10.026  0.156E+00  0.135E+00
  10.036  0.164E+00  0.148E+00
  10.046  0.174E+00  0.163E+00
  10.056  0.184E+00  0.178E+00
  10.066  0.194E+00  0.194E+00
  10.076  0.205E+00  0.211E+00
  10.086  0.216E+00  0.229E+00
  10.096  0.227E+00  0.247E+00
  10.106  0.238E+00  0.265E+00
  10.116  0.249E+00  0.282E+00
  10.126  0.258E+00  0.298E+00
  10.136  0.267E+00  0.313E+00
  10.146  0.275E+00  0.326E+00
  10.156  0.281E+00  0.336E+00
  10.166  0.285E+00  0.344E+00
  10.176  0.287E+00  0.349E+00
  10.186  0.287E+00  0.351E+00
  10.196  0.285E+00  0.349E+00
  10.206  0.280E+00  0.344E+00
  10.216  0.274E+00  0.337E+00
  10.226  0.265E+00  0.326E+00
  10.236  0.254E+00  0.313E+00
  10.246  0.242E+00  0.298E+00
  10.256  0.229E+00  0.282E+00
  10.266  0.215E+00  0.264E+00
  10.276  0.201E+00  0.246E+00
  10.286  0.187E+00  0.228E+00
  10.296  0.174E+00  0.210E+00
  10.306  0.161E+00  0.193E+00
  10.316  0.149E+00  0.177E+00
  10.326  0.139E+00  0.163E+00
  10.336  0.130E+00  0.150E+00
  10.346  0.123E+00  0.140E+00
  10.356  0.117E+00  0.131E+00
  10.366  0.113E+00  0.124E+00
  10.376  0.110E+00  0.119E+00
  10.386  0.108E+00  0.115E+00
  10.396  0.108E+00  0.113E+00
  10.406  0.108E+00  0.112E+00
  10.416  0.109E+00  0.112E+00
  10.426  0.111E+00  0.113E+00
  10.436  0.113E+00  0.114E+00
  10.446  0.116E+00  0.116E+00
  10.456  0.119E+00  0.118E+00
  10.466  0.122E+00  0.121E+00
  10.476  0.125E+00  0.123E+00
  10.486  0.128E+00  0.126E+00
  10.496  0.131E+00  0.129E+00
  10.506  0.134E+00  0.132E+00
  10.516  0.138E+00  0.135E+00
  10.526  0.141E+00  0.138E+00
  10.536  0.145E+00  0.141E+00
  10.546  0.150E+00  0.145E+00
  10.556  0.155E+00  0.149E+00
  10.566  0.160E+00  0.152E+00
  10.576  0.165E+00  0.156E+00
  10.586  0.171E+00  0.160E+00
  10.596  0.177E+00  0.164E+00
  10.606  0.183E+00  0.168E+00
  10.616  0.188E+00  0.172E+00
  10.626  0.194E+00  0.176E+00
  10.636  0.199E+00  0.179E+00
  10.646  0.204E+00  0.183E+00
  10.656  0.209E+00  0.186E+00
  10.666  0.213E+00  0.190E+00
  10.676  0.217E+00  0.193E+00
  10.686  0.220E+00  0.197E+00
  10.696  0.223E+00  0.200E+00
  10.706  0.225E+00  0.204E+00
  10.716  0.227E+00  0.208E+00
  10.726  0.229E+00  0.213E+00
  10.736  0.230E+00  0.217E+00
  10.746  0.231E+00  0.222E+00
  10.756  0.232E+00  0.227E+00
  10.766  0.232E+00  0.233E+00
  10.776  0.232E+00  0.237E+00
  10.786  0.232E+00  0.242E+00
  10.796  0.231E+00  0.246E+00
  10.806  0.230E+00  0.250E+00
  10.816  0.228E+00  0.252E+00
  10.826  0.225E+00  0.253E+00
  10.836  0.221E+00  0.253E+00
  10.846  0.216E+00  0.251E+00
  10.856  0.211E+00  0.248E+00
  10.866  0.205E+00  0.244E+00
  10.876  0.198E+00  0.238E+00
  10.886  0.190E+00  0.231E+00
  10.896  0.182E+00  0.223E+00
  10.906  0.174E+00  0.214E+00
  10.916  0.165E+00  0.204E+00
  10.926  0.157E+00  0.195E+00
  10.936  0.148E+00  0.185E+00
  10.946  0.141E+00  0.175E+00
  10.956  0.134E+00  0.166E+00
  10.966  0.127E+00  0.158E+00
  10.976  0.122E+00  0.151E+00
  10.986  0.117E+00  0.144E+00
  10.996  0.113E+00  0.139E+00
  11.006  0.111E+00  0.134E+00
  11.016  0.108E+00  0.131E+00
  11.026  0.107E+00  0.128E+00
  11.036  0.106E+00  0.126E+00
  11.046  0.105E+00  0.124E+00
  11.056  0.105E+00  0.123E+00
  11.066  0.104E+00  0.121E+00
  11.076  0.103E+00  0.120E+00
  11.086  0.102E+00  0.118E+00
  11.096  0.101E+00  0.116E+00
  11.106  0.994E-01  0.113E+00
  11.116  0.974E-01  0.110E+00
  11.126  0.950E-01  0.107E+00
  11.136  0.925E-01  0.103E+00
  11.146  0.899E-01  0.991E-01
  11.156  0.873E-01  0.951E-01
  11.166  0.850E-01  0.912E-01
  11.176  0.833E-01  0.876E-01
  11.186  0.822E-01  0.844E-01
  11.196  0.820E-01  0.820E-01
  11.206  0.828E-01  0.804E-01
  11.216  0.850E-01  0.799E-01
  11.226  0.885E-01  0.805E-01
  11.236  0.935E-01  0.825E-01
  11.246  0.100E+00  0.858E-01
  11.256  0.108E+00  0.905E-01
  11.266  0.118E+00  0.965E-01
  11.276  0.128E+00  0.104E+00
  11.286  0.141E+00  0.112E+00
  11.296  0.154E+00  0.122E+00
  11.306  0.167E+00  0.133E+00
  11.316  0.182E+00  0.144E+00
  11.326  0.196E+00  0.156E+00
  11.336  0.211E+00  0.168E+00
  11.346  0.225E+00  0.180E+00
  11.356  0.238E+00  0.193E+00
  11.366  0.251E+00  0.205E+00
  11.376  0.263E+00  0.216E+00
  11.386  0.273E+00  0.228E+00
  11.396  0.282E+00  0.239E+00
  11.406  0.290E+00  0.249E+00
  11.416  0.296E+00  0.258E+00
  11.426  0.301E+00  0.267E+00
  11.436  0.304E+00  0.275E+00
  11.446  0.306E+00  0.283E+00
  11.456  0.307E+00  0.289E+00
  11.466  0.307E+00  0.295E+00
  11.476  0.307E+00  0.300E+00
  11.486  0.305E+00  0.305E+00
  11.496  0.302E+00  0.308E+00
  11.506  0.299E+00  0.310E+00
  11.516  0.295E+00  0.312E+00
  11.526  0.290E+00  0.312E+00
  11.536  0.284E+00  0.311E+00
  11.546  0.277E+00  0.308E+00
  11.556  0.270E+00  0.304E+00
  11.566  0.261E+00  0.298E+00
  11.576  0.252E+00  0.290E+00
  11.586  0.241E+00  0.281E+00
  11.596  0.230E+00  0.270E+00
  11.606  0.218E+00  0.258E+00
  11.616  0.205E+00  0.244E+00
  11.626  0.191E+00  0.229E+00
  11.636  0.177E+00  0.213E+00
  11.646  0.163E+00  0.197E+00
  11.656  0.149E+00  0.180E+00
  11.666  0.134E+00  0.164E+00
  11.676  0.120E+00  0.147E+00
  11.686  0.107E+00  0.131E+00
  11.696  0.938E-01  0.115E+00
  11.706  0.818E-01  0.101E+00
  11.716  0.706E-01  0.869E-01
  11.726  0.604E-01  0.744E-01
  11.736  0.512E-01  0.631E-01
  11.746  0.431E-01  0.531E-01
  11.756  0.361E-01  0.443E-01
  11.766  0.301E-01  0.367E-01
  11.776  0.251E-01  0.304E-01
  11.786  0.211E-01  0.251E-01
  11.796  0.181E-01  0.210E-01
  11.806  0.159E-01  0.179E-01
  11.816  0.147E-01  0.157E-01
  11.826  0.144E-01  0.145E-01
  11.836  0.150E-01  0.142E-01
  11.846  0.166E-01  0.147E-01
  11.856  0.191E-01  0.162E-01
  11.866  0.226E-01  0.186E-01
  11.876  0.271E-01  0.219E-01
  11.886  0.328E-01  0.262E-01
  11.896  0.397E-01  0.315E-01
  11.906  0.479E-01  0.378E-01
  11.916  0.573E-01  0.452E-01
  11.926  0.680E-01  0.537E-01
  11.936  0.799E-01  0.633E-01
  11.946  0.931E-01  0.739E-01
  11.956  0.107E+00  0.854E-01
  11.966  0.123E+00  0.979E-01
  11.976  0.139E+00  0.111E+00
  11.986  0.155E+00  0.125E+00
  11.996  0.172E+00  0.138E+00
  12.006  0.188E+00  0.152E+00
  12.016  0.204E+00  0.166E+00
  12.026  0.220E+00  0.179E+00
  12.036  0.234E+00  0.192E+00
  12.046  0.247E+00  0.203E+00
  12.056  0.257E+00  0.213E+00
  12.066  0.266E+00  0.222E+00
  12.076  0.273E+00  0.229E+00
  12.086  0.278E+00  0.234E+00
  12.096  0.280E+00  0.238E+00
  12.106  0.281E+00  0.240E+00
  12.116  0.279E+00  0.241E+00
  12.126  0.276E+00  0.240E+00
  12.136  0.271E+00  0.238E+00
  12.146  0.266E+00  0.236E+00
  12.156  0.259E+00  0.233E+00
  12.166  0.253E+00  0.231E+00
  12.176  0.246E+00  0.228E+00
  12.186  0.240E+00  0.225E+00
  12.196  0.234E+00  0.223E+00
  12.206  0.229E+00  0.222E+00
  12.216  0.225E+00  0.221E+00
  12.226  0.222E+00  0.221E+00
  12.236  0.219E+00  0.222E+00
  12.246  0.218E+00  0.223E+00
  12.256  0.216E+00  0.224E+00
  12.266  0.215E+00  0.225E+00
  12.276  0.213E+00  0.225E+00
  12.286  0.212E+00  0.225E+00
  12.296  0.210E+00  0.224E+00
  12.306  0.207E+00  0.222E+00
  12.316  0.203E+00  0.219E+00
  12.326  0.198E+00  0.214E+00
  12.336  0.192E+00  0.209E+00
  12.346  0.185E+00  0.202E+00
  12.356  0.177E+00  0.193E+00
  12.366  0.169E+00  0.184E+00
  12.376  0.160E+00  0.175E+00
  12.386  0.150E+00  0.164E+00
  12.396  0.141E+00  0.154E+00
  12.406  0.132E+00  0.144E+00
  12.416  0.123E+00  0.134E+00
  12.426  0.115E+00  0.126E+00
  12.436  0.108E+00  0.118E+00
  12.446  0.102E+00  0.111E+00
  12.456  0.977E-01  0.105E+00
  12.466  0.945E-01  0.101E+00
  12.476  0.926E-01  0.980E-01
  12.486  0.920E-01  0.964E-01
  12.496  0.927E-01  0.960E-01
  12.506  0.946E-01  0.966E-01
  12.516  0.975E-01  0.981E-01
  12.526  0.101E+00  0.100E+00
  12.536  0.106E+00  0.103E+00
  12.546  0.111E+00  0.106E+00
  12.556  0.117E+00  0.109E+00
  12.566  0.123E+00  0.112E+00
  12.576  0.129E+00  0.115E+00
  12.586  0.135E+00  0.118E+00
  12.596  0.141E+00  0.120E+00
  12.606  0.147E+00  0.122E+00
  12.616  0.153E+00  0.124E+00
  12.626  0.159E+00  0.125E+00
  12.636  0.165E+00  0.126E+00
  12.646  0.170E+00  0.127E+00
  12.656  0.175E+00  0.127E+00
  12.666  0.180E+00  0.128E+00
  12.676  0.184E+00  0.128E+00
  12.686  0.188E+00  0.129E+00
  12.696  0.191E+00  0.129E+00
  12.706  0.193E+00  0.129E+00
  12.716  0.195E+00  0.130E+00
  12.726  0.195E+00  0.130E+00
  12.736  0.195E+00  0.130E+00
  12.746  0.194E+00  0.129E+00
  12.756  0.191E+00  0.129E+00
  12.766  0.188E+00  0.128E+00
  12.776  0.184E+00  0.126E+00
  12.786  0.178E+00  0.124E+00
  12.796  0.172E+00  0.122E+00
  12.806  0.165E+00  0.119E+00
  12.816  0.157E+00  0.116E+00
  12.826  0.149E+00  0.112E+00
  12.836  0.140E+00  0.108E+00
  12.846  0.132E+00  0.104E+00
  12.856  0.124E+00  0.100E+00
  12.866  0.117E+00  0.965E-01
  12.876  0.110E+00  0.935E-01
  12.886  0.104E+00  0.912E-01
  12.896  0.995E-01  0.897E-01
  12.906  0.964E-01  0.894E-01
  12.916  0.949E-01  0.901E-01
  12.926  0.951E-01  0.922E-01
  12.936  0.972E-01  0.956E-01
  12.946  0.101E+00  0.100E+00
  12.956  0.107E+00  0.106E+00
  12.966  0.115E+00  0.113E+00
  12.976  0.125E+00  0.121E+00
  12.986  0.136E+00  0.130E+00
  12.996  0.150E+00  0.140E+00
  13.006  0.165E+00  0.150E+00
  13.016  0.182E+00  0.160E+00
  13.026  0.200E+00  0.170E+00
  13.036  0.219E+00  0.179E+00
  13.046  0.240E+00  0.188E+00
  13.056  0.261E+00  0.195E+00
  13.066  0.283E+00  0.202E+00
  13.076  0.306E+00  0.207E+00
  13.086  0.329E+00  0.211E+00
  13.096  0.352E+00  0.213E+00
  13.106  0.375E+00  0.214E+00
  13.116  0.398E+00  0.214E+00
  13.126  0.420E+00  0.212E+00
  13.136  0.441E+00  0.209E+00
  13.146  0.460E+00  0.205E+00
  13.156  0.479E+00  0.200E+00
  13.166  0.496E+00  0.194E+00
  13.176  0.511E+00  0.188E+00
  13.186  0.523E+00  0.181E+00
  13.196  0.534E+00  0.174E+00
  13.206  0.542E+00  0.167E+00
  13.216  0.548E+00  0.161E+00
  13.226  0.551E+00  0.154E+00
  13.236  0.552E+00  0.148E+00
  13.246  0.551E+00  0.143E+00
  13.256  0.548E+00  0.137E+00
  13.266  0.543E+00  0.133E+00
  13.276  0.537E+00  0.129E+00
  13.286  0.530E+00  0.127E+00
  13.296  0.523E+00  0.125E+00
  13.306  0.517E+00  0.125E+00
  13.316  0.512E+00  0.127E+00
  13.326  0.508E+00  0.130E+00
  13.336  0.507E+00  0.136E+00
  13.346  0.510E+00  0.144E+00
  13.356  0.516E+00  0.155E+00
  13.366  0.526E+00  0.169E+00
  13.376  0.541E+00  0.186E+00
  13.386  0.562E+00  0.206E+00
  13.396  0.588E+00  0.230E+00
  13.406  0.619E+00  0.258E+00
  13.416  0.656E+00  0.288E+00
  13.426  0.699E+00  0.323E+00
  13.436  0.746E+00  0.360E+00
  13.446  0.798E+00  0.400E+00
  13.456  0.854E+00  0.442E+00
  13.466  0.913E+00  0.486E+00
  13.476  0.973E+00  0.531E+00
  13.486  0.103E+01  0.576E+00
  13.496  0.110E+01  0.621E+00
  13.506  0.116E+01  0.664E+00
  13.516  0.121E+01  0.706E+00
  13.526  0.127E+01  0.745E+00
  13.536  0.131E+01  0.780E+00
  13.546  0.136E+01  0.812E+00
  13.556  0.140E+01  0.840E+00
  13.566  0.143E+01  0.864E+00
  13.576  0.145E+01  0.882E+00
  13.586  0.147E+01  0.896E+00
  13.596  0.148E+01  0.906E+00
  13.606  0.148E+01  0.911E+00
  13.616  0.148E+01  0.912E+00
  13.626  0.147E+01  0.909E+00
  13.636  0.145E+01  0.903E+00
  13.646  0.144E+01  0.894E+00
  13.656  0.141E+01  0.883E+00
  13.666  0.139E+01  0.870E+00
  13.676  0.136E+01  0.857E+00
  13.686  0.133E+01  0.842E+00
  13.696  0.130E+01  0.828E+00
  13.706  0.127E+01  0.813E+00
  13.716  0.125E+01  0.800E+00
  13.726  0.122E+01  0.787E+00
  13.736  0.119E+01  0.775E+00
  13.746  0.116E+01  0.764E+00
  13.756  0.114E+01  0.754E+00
  13.766  0.112E+01  0.745E+00
  13.776  0.109E+01  0.738E+00
  13.786  0.107E+01  0.730E+00
  13.796  0.105E+01  0.724E+00
  13.806  0.104E+01  0.717E+00
  13.816  0.102E+01  0.711E+00
  13.826  0.100E+01  0.705E+00
  13.836  0.989E+00  0.698E+00
  13.846  0.974E+00  0.690E+00
  13.856  0.959E+00  0.682E+00
  13.866  0.944E+00  0.673E+00
  13.876  0.930E+00  0.662E+00
  13.886  0.915E+00  0.651E+00
  13.896  0.900E+00  0.639E+00
  13.906  0.885E+00  0.625E+00
  13.916  0.870E+00  0.611E+00
  13.926  0.855E+00  0.596E+00
  13.936  0.840E+00  0.580E+00
  13.946  0.824E+00  0.563E+00
  13.956  0.809E+00  0.547E+00
  13.966  0.794E+00  0.530E+00
  13.976  0.780E+00  0.513E+00
  13.986  0.766E+00  0.497E+00
  13.996  0.753E+00  0.482E+00
  14.006  0.740E+00  0.468E+00
  14.016  0.730E+00  0.455E+00
  14.026  0.720E+00  0.443E+00
  14.036  0.713E+00  0.433E+00
  14.046  0.707E+00  0.425E+00
  14.056  0.704E+00  0.419E+00
  14.066  0.703E+00  0.415E+00
  14.076  0.704E+00  0.414E+00
  14.086  0.708E+00  0.415E+00
  14.096  0.713E+00  0.418E+00
  14.106  0.722E+00  0.423E+00
  14.116  0.732E+00  0.430E+00
  14.126  0.744E+00  0.439E+00
  14.136  0.758E+00  0.449E+00
  14.146  0.773E+00  0.461E+00
  14.156  0.789E+00  0.473E+00
  14.166  0.806E+00  0.485E+00
  14.176  0.824E+00  0.498E+00
  14.186  0.842E+00  0.511E+00
  14.196  0.859E+00  0.523E+00
  14.206  0.877E+00  0.534E+00
  14.216  0.894E+00  0.545E+00
  14.226  0.911E+00  0.554E+00
  14.236  0.929E+00  0.562E+00
  14.246  0.946E+00  0.569E+00
  14.256  0.963E+00  0.575E+00
  14.266  0.980E+00  0.580E+00
  14.276  0.998E+00  0.584E+00
  14.286  0.102E+01  0.588E+00
  14.296  0.103E+01  0.591E+00
  14.306  0.105E+01  0.593E+00
  14.316  0.107E+01  0.595E+00
  14.326  0.109E+01  0.597E+00
  14.336  0.111E+01  0.599E+00
  14.346  0.113E+01  0.601E+00
  14.356  0.114E+01  0.603E+00
  14.366  0.116E+01  0.604E+00
  14.376  0.117E+01  0.605E+00
  14.386  0.118E+01  0.606E+00
  14.396  0.119E+01  0.606E+00
  14.406  0.119E+01  0.605E+00
  14.416  0.119E+01  0.604E+00
  14.426  0.119E+01  0.602E+00
  14.436  0.119E+01  0.599E+00
  14.446  0.118E+01  0.596E+00
  14.456  0.117E+01  0.592E+00
  14.466  0.115E+01  0.587E+00
  14.476  0.114E+01  0.581E+00
  14.486  0.112E+01  0.575E+00
  14.496  0.110E+01  0.569E+00
  14.506  0.108E+01  0.562E+00
  14.516  0.106E+01  0.554E+00
  14.526  0.104E+01  0.547E+00
  14.536  0.102E+01  0.539E+00
  14.546  0.100E+01  0.531E+00
  14.556  0.983E+00  0.522E+00
  14.566  0.963E+00  0.514E+00
  14.576  0.943E+00  0.505E+00
  14.586  0.923E+00  0.496E+00
  14.596  0.903E+00  0.487E+00
  14.606  0.884E+00  0.478E+00
  14.616  0.864E+00  0.470E+00
  14.626  0.845E+00  0.461E+00
  14.636  0.826E+00  0.453E+00
  14.646  0.808E+00  0.446E+00
  14.656  0.790E+00  0.439E+00
  14.666  0.773E+00  0.434E+00
  14.676  0.758E+00  0.429E+00
  14.686  0.743E+00  0.425E+00
  14.696  0.731E+00  0.422E+00
  14.706  0.720E+00  0.420E+00
  14.716  0.710E+00  0.419E+00
  14.726  0.703E+00  0.418E+00
  14.736  0.697E+00  0.418E+00
  14.746  0.693E+00  0.418E+00
  14.756  0.690E+00  0.419E+00
  14.766  0.689E+00  0.419E+00
  14.776  0.690E+00  0.420E+00
  14.786  0.691E+00  0.420E+00
  14.796  0.694E+00  0.419E+00
  14.806  0.697E+00  0.419E+00
  14.816  0.700E+00  0.418E+00
  14.826  0.703E+00  0.416E+00
  14.836  0.707E+00  0.414E+00
  14.846  0.710E+00  0.412E+00
  14.856  0.712E+00  0.409E+00
  14.866  0.714E+00  0.406E+00
  14.876  0.714E+00  0.403E+00
  14.886  0.713E+00  0.399E+00
  14.896  0.711E+00  0.396E+00
  14.906  0.708E+00  0.392E+00
  14.916  0.703E+00  0.387E+00
  14.926  0.696E+00  0.382E+00
  14.936  0.689E+00  0.377E+00
  14.946  0.679E+00  0.372E+00
  14.956  0.669E+00  0.365E+00
  14.966  0.658E+00  0.359E+00
  14.976  0.646E+00  0.352E+00
  14.986  0.634E+00  0.344E+00
  14.996  0.622E+00  0.337E+00
  15.006  0.610E+00  0.329E+00
  15.016  0.599E+00  0.321E+00
  15.026  0.589E+00  0.314E+00
  15.036  0.581E+00  0.307E+00
  15.046  0.574E+00  0.300E+00
  15.056  0.568E+00  0.294E+00
  15.066  0.564E+00  0.289E+00
  15.076  0.562E+00  0.285E+00
  15.086  0.562E+00  0.281E+00
  15.096  0.564E+00  0.279E+00
  15.106  0.566E+00  0.277E+00
  15.116  0.570E+00  0.277E+00
  15.126  0.575E+00  0.277E+00
  15.136  0.581E+00  0.277E+00
  15.146  0.586E+00  0.278E+00
  15.156  0.592E+00  0.279E+00
  15.166  0.598E+00  0.281E+00
  15.176  0.603E+00  0.282E+00
  15.186  0.607E+00  0.284E+00
  15.196  0.611E+00  0.285E+00
  15.206  0.615E+00  0.286E+00
  15.216  0.618E+00  0.287E+00
  15.226  0.620E+00  0.287E+00
  15.236  0.621E+00  0.288E+00
  15.246  0.623E+00  0.289E+00
  15.256  0.624E+00  0.290E+00
  15.266  0.626E+00  0.291E+00
  15.276  0.628E+00  0.292E+00
  15.286  0.630E+00  0.294E+00
  15.296  0.633E+00  0.297E+00
  15.306  0.637E+00  0.300E+00
  15.316  0.642E+00  0.304E+00
  15.326  0.647E+00  0.309E+00
  15.336  0.654E+00  0.314E+00
  15.346  0.661E+00  0.320E+00
  15.356  0.668E+00  0.326E+00
  15.366  0.676E+00  0.333E+00
  15.376  0.683E+00  0.339E+00
  15.386  0.689E+00  0.345E+00
  15.396  0.695E+00  0.350E+00
  15.406  0.699E+00  0.354E+00
  15.416  0.700E+00  0.357E+00
  15.426  0.700E+00  0.358E+00
  15.436  0.697E+00  0.358E+00
  15.446  0.691E+00  0.356E+00
  15.456  0.683E+00  0.351E+00
  15.466  0.672E+00  0.345E+00
  15.476  0.658E+00  0.338E+00
  15.486  0.642E+00  0.329E+00
  15.496  0.625E+00  0.318E+00
  15.506  0.606E+00  0.307E+00
  15.516  0.588E+00  0.296E+00
  15.526  0.569E+00  0.285E+00
  15.536  0.551E+00  0.274E+00
  15.546  0.536E+00  0.264E+00
  15.556  0.522E+00  0.255E+00
  15.566  0.511E+00  0.248E+00
  15.576  0.504E+00  0.242E+00
  15.586  0.500E+00  0.238E+00
  15.596  0.499E+00  0.237E+00
  15.606  0.502E+00  0.237E+00
  15.616  0.507E+00  0.238E+00
  15.626  0.516E+00  0.241E+00
  15.636  0.525E+00  0.246E+00
  15.646  0.536E+00  0.250E+00
  15.656  0.548E+00  0.256E+00
  15.666  0.559E+00  0.261E+00
  15.676  0.568E+00  0.265E+00
  15.686  0.576E+00  0.269E+00
  15.696  0.581E+00  0.271E+00
  15.706  0.583E+00  0.272E+00
  15.716  0.582E+00  0.271E+00
  15.726  0.578E+00  0.269E+00
  15.736  0.570E+00  0.265E+00
  15.746  0.560E+00  0.260E+00
  15.756  0.548E+00  0.254E+00
  15.766  0.535E+00  0.247E+00
  15.776  0.521E+00  0.240E+00
  15.786  0.508E+00  0.232E+00
  15.796  0.496E+00  0.225E+00
  15.806  0.486E+00  0.219E+00
  15.816  0.480E+00  0.214E+00
  15.826  0.478E+00  0.211E+00
  15.836  0.481E+00  0.210E+00
  15.846  0.490E+00  0.212E+00
  15.856  0.504E+00  0.215E+00
  15.866  0.525E+00  0.222E+00
  15.876  0.551E+00  0.230E+00
  15.886  0.584E+00  0.241E+00
  15.896  0.621E+00  0.254E+00
  15.906  0.664E+00  0.268E+00
  15.916  0.710E+00  0.284E+00
  15.926  0.759E+00  0.300E+00
  15.936  0.810E+00  0.317E+00
  15.946  0.862E+00  0.334E+00
  15.956  0.913E+00  0.349E+00
  15.966  0.962E+00  0.364E+00
  15.976  0.101E+01  0.377E+00
  15.986  0.105E+01  0.389E+00
  15.996  0.109E+01  0.398E+00
  16.006  0.112E+01  0.404E+00
  16.016  0.115E+01  0.409E+00
  16.026  0.117E+01  0.411E+00
  16.036  0.118E+01  0.411E+00
  16.046  0.119E+01  0.408E+00
  16.056  0.119E+01  0.405E+00
  16.066  0.118E+01  0.399E+00
  16.076  0.117E+01  0.393E+00
  16.086  0.116E+01  0.386E+00
  16.096  0.114E+01  0.380E+00
  16.106  0.112E+01  0.373E+00
  16.116  0.109E+01  0.367E+00
  16.126  0.107E+01  0.363E+00
  16.136  0.104E+01  0.359E+00
  16.146  0.102E+01  0.357E+00
  16.156  0.991E+00  0.356E+00
  16.166  0.966E+00  0.356E+00
  16.176  0.943E+00  0.358E+00
  16.186  0.921E+00  0.361E+00
  16.196  0.901E+00  0.365E+00
  16.206  0.882E+00  0.369E+00
  16.216  0.864E+00  0.374E+00
  16.226  0.848E+00  0.379E+00
  16.236  0.832E+00  0.383E+00
  16.246  0.818E+00  0.387E+00
  16.256  0.804E+00  0.389E+00
  16.266  0.791E+00  0.391E+00
  16.276  0.778E+00  0.391E+00
  16.286  0.765E+00  0.389E+00
  16.296  0.753E+00  0.386E+00
  16.306  0.740E+00  0.382E+00
  16.316  0.727E+00  0.375E+00
  16.326  0.715E+00  0.368E+00
  16.336  0.702E+00  0.359E+00
  16.346  0.688E+00  0.349E+00
  16.356  0.675E+00  0.338E+00
  16.366  0.661E+00  0.327E+00
  16.376  0.647E+00  0.315E+00
  16.386  0.633E+00  0.304E+00
  16.396  0.619E+00  0.292E+00
  16.406  0.604E+00  0.281E+00
  16.416  0.590E+00  0.271E+00
  16.426  0.576E+00  0.262E+00
  16.436  0.562E+00  0.253E+00
  16.446  0.549E+00  0.246E+00
  16.456  0.537E+00  0.240E+00
  16.466  0.525E+00  0.235E+00
  16.476  0.515E+00  0.231E+00
  16.486  0.505E+00  0.229E+00
  16.496  0.498E+00  0.228E+00
  16.506  0.491E+00  0.229E+00
  16.516  0.487E+00  0.230E+00
  16.526  0.484E+00  0.233E+00
  16.536  0.483E+00  0.237E+00
  16.546  0.484E+00  0.241E+00
  16.556  0.487E+00  0.246E+00
  16.566  0.491E+00  0.252E+00
  16.576  0.496E+00  0.257E+00
  16.586  0.502E+00  0.263E+00
  16.596  0.509E+00  0.268E+00
  16.606  0.516E+00  0.273E+00
  16.616  0.523E+00  0.277E+00
  16.626  0.529E+00  0.279E+00
  16.636  0.535E+00  0.281E+00
  16.646  0.539E+00  0.282E+00
  16.656  0.542E+00  0.281E+00
  16.666  0.543E+00  0.279E+00
  16.676  0.542E+00  0.275E+00
  16.686  0.539E+00  0.270E+00
  16.696  0.534E+00  0.264E+00
  16.706  0.528E+00  0.257E+00
  16.716  0.520E+00  0.250E+00
  16.726  0.510E+00  0.242E+00
  16.736  0.499E+00  0.234E+00
  16.746  0.488E+00  0.225E+00
  16.756  0.476E+00  0.217E+00
  16.766  0.464E+00  0.210E+00
  16.776  0.453E+00  0.204E+00
  16.786  0.443E+00  0.198E+00
  16.796  0.435E+00  0.194E+00
  16.806  0.429E+00  0.191E+00
  16.816  0.426E+00  0.189E+00
  16.826  0.426E+00  0.190E+00
  16.836  0.428E+00  0.191E+00
  16.846  0.435E+00  0.195E+00
  16.856  0.445E+00  0.200E+00
  16.866  0.460E+00  0.206E+00
  16.876  0.478E+00  0.214E+00
  16.886  0.500E+00  0.222E+00
  16.896  0.526E+00  0.232E+00
  16.906  0.555E+00  0.242E+00
  16.916  0.587E+00  0.252E+00
  16.926  0.622E+00  0.263E+00
  16.936  0.659E+00  0.273E+00
  16.946  0.697E+00  0.282E+00
  16.956  0.736E+00  0.291E+00
  16.966  0.775E+00  0.298E+00
  16.976  0.813E+00  0.304E+00
  16.986  0.850E+00  0.309E+00
  16.996  0.884E+00  0.313E+00
  17.006  0.916E+00  0.315E+00
  17.016  0.945E+00  0.315E+00
  17.026  0.969E+00  0.314E+00
  17.036  0.990E+00  0.311E+00
  17.046  0.101E+01  0.308E+00
  17.056  0.102E+01  0.303E+00
  17.066  0.103E+01  0.298E+00
  17.076  0.103E+01  0.293E+00
  17.086  0.103E+01  0.287E+00
  17.096  0.102E+01  0.282E+00
  17.106  0.102E+01  0.277E+00
  17.116  0.101E+01  0.273E+00
  17.126  0.998E+00  0.269E+00
  17.136  0.986E+00  0.268E+00
  17.146  0.973E+00  0.267E+00
  17.156  0.960E+00  0.268E+00
  17.166  0.948E+00  0.271E+00
  17.176  0.936E+00  0.276E+00
  17.186  0.925E+00  0.281E+00
  17.196  0.916E+00  0.288E+00
  17.206  0.907E+00  0.297E+00
  17.216  0.900E+00  0.306E+00
  17.226  0.894E+00  0.315E+00
  17.236  0.889E+00  0.325E+00
  17.246  0.884E+00  0.334E+00
  17.256  0.879E+00  0.343E+00
  17.266  0.875E+00  0.350E+00
  17.276  0.869E+00  0.357E+00
  17.286  0.863E+00  0.362E+00
  17.296  0.856E+00  0.364E+00
  17.306  0.848E+00  0.365E+00
  17.316  0.838E+00  0.364E+00
  17.326  0.827E+00  0.361E+00
  17.336  0.815E+00  0.356E+00
  17.346  0.802E+00  0.350E+00
  17.356  0.788E+00  0.341E+00
  17.366  0.774E+00  0.331E+00
  17.376  0.759E+00  0.321E+00
  17.386  0.744E+00  0.309E+00
  17.396  0.728E+00  0.297E+00
  17.406  0.713E+00  0.285E+00
  17.416  0.699E+00  0.273E+00
  17.426  0.685E+00  0.261E+00
  17.436  0.672E+00  0.250E+00
  17.446  0.659E+00  0.240E+00
  17.456  0.647E+00  0.231E+00
  17.466  0.637E+00  0.223E+00
  17.476  0.626E+00  0.216E+00
  17.486  0.617E+00  0.211E+00
  17.496  0.609E+00  0.207E+00
  17.506  0.602E+00  0.205E+00
  17.516  0.595E+00  0.204E+00
  17.526  0.590E+00  0.205E+00
  17.536  0.585E+00  0.207E+00
  17.546  0.581E+00  0.210E+00
  17.556  0.578E+00  0.214E+00
  17.566  0.575E+00  0.220E+00
  17.576  0.573E+00  0.226E+00
  17.586  0.572E+00  0.233E+00
  17.596  0.571E+00  0.239E+00
  17.606  0.570E+00  0.246E+00
  17.616  0.569E+00  0.253E+00
  17.626  0.568E+00  0.260E+00
  17.636  0.567E+00  0.265E+00
  17.646  0.565E+00  0.270E+00
  17.656  0.563E+00  0.274E+00
  17.666  0.561E+00  0.276E+00
  17.676  0.558E+00  0.278E+00
  17.686  0.555E+00  0.277E+00
  17.696  0.551E+00  0.276E+00
  17.706  0.548E+00  0.273E+00
  17.716  0.545E+00  0.269E+00
  17.726  0.542E+00  0.264E+00
  17.736  0.540E+00  0.258E+00
  17.746  0.539E+00  0.251E+00
  17.756  0.539E+00  0.244E+00
  17.766  0.541E+00  0.237E+00
  17.776  0.544E+00  0.229E+00
  17.786  0.549E+00  0.223E+00
  17.796  0.556E+00  0.216E+00
  17.806  0.564E+00  0.211E+00
  17.816  0.573E+00  0.206E+00
  17.826  0.584E+00  0.203E+00
  17.836  0.596E+00  0.200E+00
  17.846  0.608E+00  0.199E+00
  17.856  0.621E+00  0.199E+00
  17.866  0.633E+00  0.200E+00
  17.876  0.646E+00  0.202E+00
  17.886  0.657E+00  0.206E+00
  17.896  0.668E+00  0.210E+00
  17.906  0.678E+00  0.215E+00
  17.916  0.687E+00  0.222E+00
  17.926  0.694E+00  0.228E+00
  17.936  0.700E+00  0.236E+00
  17.946  0.705E+00  0.244E+00
  17.956  0.709E+00  0.252E+00
  17.966  0.712E+00  0.260E+00
  17.976  0.713E+00  0.268E+00
  17.986  0.714E+00  0.276E+00
  17.996  0.713E+00  0.283E+00
  18.006  0.712E+00  0.290E+00
  18.016  0.710E+00  0.295E+00
  18.026  0.706E+00  0.300E+00
  18.036  0.702E+00  0.303E+00
  18.046  0.695E+00  0.305E+00
  18.056  0.688E+00  0.306E+00
  18.066  0.679E+00  0.304E+00
  18.076  0.668E+00  0.301E+00
  18.086  0.655E+00  0.296E+00
  18.096  0.641E+00  0.290E+00
  18.106  0.626E+00  0.282E+00
  18.116  0.609E+00  0.273E+00
  18.126  0.592E+00  0.263E+00
  18.136  0.574E+00  0.253E+00
  18.146  0.555E+00  0.241E+00
  18.156  0.538E+00  0.230E+00
  18.166  0.520E+00  0.219E+00
  18.176  0.505E+00  0.208E+00
  18.186  0.490E+00  0.197E+00
  18.196  0.478E+00  0.188E+00
  18.206  0.467E+00  0.179E+00
  18.216  0.459E+00  0.172E+00
  18.226  0.453E+00  0.166E+00
  18.236  0.450E+00  0.161E+00
  18.246  0.448E+00  0.158E+00
  18.256  0.449E+00  0.156E+00
  18.266  0.452E+00  0.155E+00
  18.276  0.456E+00  0.156E+00
  18.286  0.462E+00  0.157E+00
  18.296  0.469E+00  0.160E+00
  18.306  0.476E+00  0.164E+00
  18.316  0.485E+00  0.169E+00
  18.326  0.494E+00  0.174E+00
  18.336  0.503E+00  0.180E+00
  18.346  0.513E+00  0.187E+00
  18.356  0.522E+00  0.194E+00
  18.366  0.531E+00  0.201E+00
  18.376  0.540E+00  0.208E+00
  18.386  0.549E+00  0.216E+00
  18.396  0.557E+00  0.223E+00
  18.406  0.565E+00  0.230E+00
  18.416  0.572E+00  0.236E+00
  18.426  0.578E+00  0.242E+00
  18.436  0.584E+00  0.247E+00
  18.446  0.590E+00  0.251E+00
  18.456  0.595E+00  0.255E+00
  18.466  0.600E+00  0.258E+00
  18.476  0.606E+00  0.260E+00
  18.486  0.612E+00  0.262E+00
  18.496  0.619E+00  0.264E+00
  18.506  0.628E+00  0.267E+00
  18.516  0.639E+00  0.270E+00
  18.526  0.653E+00  0.274E+00
  18.536  0.670E+00  0.279E+00
  18.546  0.691E+00  0.286E+00
  18.556  0.716E+00  0.295E+00
  18.566  0.747E+00  0.306E+00
  18.576  0.782E+00  0.320E+00
  18.586  0.822E+00  0.337E+00
  18.596  0.868E+00  0.357E+00
  18.606  0.919E+00  0.380E+00
  18.616  0.975E+00  0.406E+00
  18.626  0.104E+01  0.434E+00
  18.636  0.110E+01  0.465E+00
  18.646  0.117E+01  0.498E+00
  18.656  0.123E+01  0.533E+00
  18.666  0.130E+01  0.569E+00
  18.676  0.137E+01  0.606E+00
  18.686  0.144E+01  0.642E+00
  18.696  0.150E+01  0.677E+00
  18.706  0.156E+01  0.712E+00
  18.716  0.162E+01  0.744E+00
  18.726  0.167E+01  0.773E+00
  18.736  0.171E+01  0.800E+00
  18.746  0.175E+01  0.823E+00
  18.756  0.178E+01  0.843E+00
  18.766  0.180E+01  0.859E+00
  18.776  0.181E+01  0.871E+00
  18.786  0.182E+01  0.879E+00
  18.796  0.182E+01  0.883E+00
  18.806  0.181E+01  0.883E+00
  18.816  0.180E+01  0.880E+00
  18.826  0.178E+01  0.874E+00
  18.836  0.176E+01  0.864E+00
  18.846  0.173E+01  0.851E+00
  18.856  0.169E+01  0.836E+00
  18.866  0.166E+01  0.819E+00
  18.876  0.162E+01  0.800E+00
  18.886  0.157E+01  0.779E+00
  18.896  0.153E+01  0.757E+00
  18.906  0.148E+01  0.734E+00
  18.916  0.144E+01  0.711E+00
  18.926  0.139E+01  0.687E+00
  18.936  0.134E+01  0.663E+00
  18.946  0.130E+01  0.639E+00
  18.956  0.125E+01  0.615E+00
  18.966  0.121E+01  0.593E+00
  18.976  0.117E+01  0.571E+00
  18.986  0.113E+01  0.550E+00
  18.996  0.110E+01  0.530E+00
  19.006  0.107E+01  0.512E+00
  19.016  0.104E+01  0.496E+00
  19.026  0.102E+01  0.481E+00
  19.036  0.998E+00  0.469E+00
  19.046  0.985E+00  0.459E+00
  19.056  0.977E+00  0.450E+00
  19.066  0.975E+00  0.445E+00
  19.076  0.978E+00  0.441E+00
  19.086  0.986E+00  0.440E+00
  19.096  0.999E+00  0.442E+00
  19.106  0.102E+01  0.445E+00
  19.116  0.104E+01  0.451E+00
  19.126  0.106E+01  0.458E+00
  19.136  0.109E+01  0.467E+00
  19.146  0.112E+01  0.478E+00
  19.156  0.115E+01  0.489E+00
  19.166  0.118E+01  0.500E+00
  19.176  0.121E+01  0.512E+00
  19.186  0.124E+01  0.523E+00
  19.196  0.127E+01  0.533E+00
  19.206  0.129E+01  0.542E+00
  19.216  0.131E+01  0.550E+00
  19.226  0.132E+01  0.555E+00
  19.236  0.134E+01  0.559E+00
  19.246  0.134E+01  0.560E+00
  19.256  0.134E+01  0.559E+00
  19.266  0.134E+01  0.555E+00
  19.276  0.133E+01  0.550E+00
  19.286  0.132E+01  0.543E+00
  19.296  0.131E+01  0.533E+00
  19.306  0.129E+01  0.523E+00
  19.316  0.127E+01  0.511E+00
  19.326  0.125E+01  0.499E+00
  19.336  0.122E+01  0.485E+00
  19.346  0.120E+01  0.472E+00
  19.356  0.118E+01  0.458E+00
  19.366  0.115E+01  0.444E+00
  19.376  0.113E+01  0.431E+00
  19.386  0.111E+01  0.418E+00
  19.396  0.109E+01  0.405E+00
  19.406  0.107E+01  0.393E+00
  19.416  0.105E+01  0.382E+00
  19.426  0.103E+01  0.372E+00
  19.436  0.101E+01  0.362E+00
  19.446  0.998E+00  0.354E+00
  19.456  0.985E+00  0.347E+00
  19.466  0.975E+00  0.340E+00
  19.476  0.966E+00  0.336E+00
  19.486  0.960E+00  0.332E+00
  19.496  0.957E+00  0.330E+00
  19.506  0.956E+00  0.329E+00
  19.516  0.957E+00  0.329E+00
  19.526  0.960E+00  0.331E+00
  19.536  0.966E+00  0.333E+00
  19.546  0.973E+00  0.337E+00
  19.556  0.981E+00  0.341E+00
  19.566  0.990E+00  0.347E+00
  19.576  0.100E+01  0.352E+00
  19.586  0.101E+01  0.358E+00
  19.596  0.102E+01  0.363E+00
  19.606  0.102E+01  0.368E+00
  19.616  0.103E+01  0.373E+00
  19.626  0.103E+01  0.377E+00
  19.636  0.104E+01  0.380E+00
  19.646  0.104E+01  0.382E+00
  19.656  0.103E+01  0.382E+00
  19.666  0.103E+01  0.382E+00
  19.676  0.102E+01  0.381E+00
  19.686  0.101E+01  0.378E+00
  19.696  0.100E+01  0.375E+00
  19.706  0.991E+00  0.370E+00
  19.716  0.978E+00  0.365E+00
  19.726  0.964E+00  0.359E+00
  19.736  0.950E+00  0.353E+00
  19.746  0.935E+00  0.346E+00
  19.756  0.920E+00  0.339E+00
  19.766  0.905E+00  0.331E+00
  19.776  0.890E+00  0.323E+00
  19.786  0.875E+00  0.315E+00
  19.796  0.861E+00  0.307E+00
  19.806  0.847E+00  0.299E+00
  19.816  0.833E+00  0.291E+00
  19.826  0.820E+00  0.283E+00
  19.836  0.808E+00  0.275E+00
  19.846  0.796E+00  0.267E+00
  19.856  0.785E+00  0.260E+00
  19.866  0.776E+00  0.254E+00
  19.876  0.769E+00  0.248E+00
  19.886  0.764E+00  0.243E+00
  19.896  0.761E+00  0.239E+00
  19.906  0.761E+00  0.236E+00
  19.916  0.765E+00  0.234E+00
  19.926  0.771E+00  0.234E+00
  19.936  0.782E+00  0.235E+00
  19.946  0.795E+00  0.237E+00
  19.956  0.812E+00  0.240E+00
  19.966  0.833E+00  0.245E+00
  19.976  0.855E+00  0.250E+00
  19.986  0.880E+00  0.256E+00
  19.996  0.906E+00  0.263E+00
  20.006  0.932E+00  0.269E+00
  20.016  0.958E+00  0.275E+00
  20.026  0.983E+00  0.281E+00
  20.036  0.101E+01  0.286E+00
  20.046  0.103E+01  0.291E+00
  20.056  0.104E+01  0.294E+00
  20.066  0.105E+01  0.296E+00
  20.076  0.106E+01  0.296E+00
  20.086  0.106E+01  0.296E+00
  20.096  0.106E+01  0.294E+00
  20.106  0.106E+01  0.291E+00
  20.116  0.105E+01  0.287E+00
  20.126  0.103E+01  0.282E+00
  20.136  0.102E+01  0.277E+00
  20.146  0.998E+00  0.271E+00
  20.156  0.980E+00  0.265E+00
  20.166  0.962E+00  0.259E+00
  20.176  0.944E+00  0.253E+00
  20.186  0.929E+00  0.248E+00
  20.196  0.916E+00  0.243E+00
  20.206  0.906E+00  0.238E+00
  20.216  0.900E+00  0.235E+00
  20.226  0.898E+00  0.232E+00
  20.236  0.901E+00  0.229E+00
  20.246  0.908E+00  0.227E+00
  20.256  0.919E+00  0.226E+00
  20.266  0.935E+00  0.225E+00
  20.276  0.955E+00  0.225E+00
  20.286  0.979E+00  0.226E+00
  20.296  0.101E+01  0.226E+00
  20.306  0.104E+01  0.227E+00
  20.316  0.107E+01  0.228E+00
  20.326  0.110E+01  0.229E+00
  20.336  0.114E+01  0.231E+00
  20.346  0.118E+01  0.232E+00
  20.356  0.122E+01  0.234E+00
  20.366  0.125E+01  0.235E+00
  20.376  0.129E+01  0.237E+00
  20.386  0.133E+01  0.238E+00
  20.396  0.136E+01  0.238E+00
  20.406  0.139E+01  0.238E+00
  20.416  0.141E+01  0.238E+00
  20.426  0.144E+01  0.237E+00
  20.436  0.146E+01  0.236E+00
  20.446  0.147E+01  0.233E+00
  20.456  0.148E+01  0.230E+00
  20.466  0.148E+01  0.226E+00
  20.476  0.147E+01  0.222E+00
  20.486  0.146E+01  0.216E+00
  20.496  0.144E+01  0.210E+00
  20.506  0.142E+01  0.203E+00
  20.516  0.139E+01  0.196E+00
  20.526  0.135E+01  0.188E+00
  20.536  0.131E+01  0.180E+00
  20.546  0.127E+01  0.173E+00
  20.556  0.122E+01  0.165E+00
  20.566  0.116E+01  0.158E+00
  20.576  0.111E+01  0.151E+00
  20.586  0.105E+01  0.145E+00
  20.596  0.990E+00  0.140E+00
  20.606  0.931E+00  0.136E+00
  20.616  0.873E+00  0.133E+00
  20.626  0.816E+00  0.130E+00
  20.636  0.762E+00  0.129E+00
  20.646  0.710E+00  0.129E+00
  20.656  0.661E+00  0.129E+00
  20.666  0.615E+00  0.130E+00
  20.676  0.573E+00  0.132E+00
  20.686  0.534E+00  0.134E+00
  20.696  0.499E+00  0.136E+00
  20.706  0.466E+00  0.138E+00
  20.716  0.437E+00  0.139E+00
  20.726  0.410E+00  0.141E+00
  20.736  0.385E+00  0.141E+00
  20.746  0.362E+00  0.141E+00
  20.756  0.341E+00  0.140E+00
  20.766  0.322E+00  0.139E+00
  20.776  0.304E+00  0.136E+00
  20.786  0.287E+00  0.133E+00
  20.796  0.273E+00  0.130E+00
  20.806  0.259E+00  0.126E+00
  20.816  0.248E+00  0.121E+00
  20.826  0.238E+00  0.117E+00
  20.836  0.230E+00  0.113E+00
  20.846  0.225E+00  0.109E+00
  20.856  0.222E+00  0.105E+00
  20.866  0.221E+00  0.103E+00
  20.876  0.223E+00  0.102E+00
  20.886  0.228E+00  0.101E+00
  20.896  0.236E+00  0.102E+00
  20.906  0.246E+00  0.105E+00
  20.916  0.259E+00  0.109E+00
  20.926  0.275E+00  0.115E+00
  20.936  0.293E+00  0.122E+00
  20.946  0.314E+00  0.130E+00
  20.956  0.337E+00  0.140E+00
  20.966  0.362E+00  0.152E+00
  20.976  0.389E+00  0.164E+00
  20.986  0.418E+00  0.178E+00
  20.996  0.448E+00  0.192E+00
  21.006  0.479E+00  0.208E+00
  21.016  0.512E+00  0.224E+00
  21.026  0.545E+00  0.240E+00
  21.036  0.579E+00  0.257E+00
  21.046  0.614E+00  0.274E+00
  21.056  0.649E+00  0.290E+00
  21.066  0.684E+00  0.307E+00
  21.076  0.719E+00  0.323E+00
  21.086  0.753E+00  0.339E+00
  21.096  0.786E+00  0.354E+00
  21.106  0.818E+00  0.368E+00
  21.116  0.849E+00  0.381E+00
  21.126  0.878E+00  0.394E+00
  21.136  0.905E+00  0.405E+00
  21.146  0.929E+00  0.414E+00
  21.156  0.951E+00  0.423E+00
  21.166  0.969E+00  0.430E+00
  21.176  0.985E+00  0.435E+00
  21.186  0.997E+00  0.439E+00
  21.196  0.101E+01  0.441E+00
  21.206  0.101E+01  0.441E+00
  21.216  0.101E+01  0.441E+00
  21.226  0.101E+01  0.439E+00
  21.236  0.101E+01  0.435E+00
  21.246  0.100E+01  0.431E+00
  21.256  0.996E+00  0.426E+00
  21.266  0.986E+00  0.421E+00
  21.276  0.974E+00  0.415E+00
  21.286  0.962E+00  0.409E+00
  21.296  0.948E+00  0.403E+00
  21.306  0.935E+00  0.397E+00
  21.316  0.921E+00  0.392E+00
  21.326  0.908E+00  0.387E+00
  21.336  0.895E+00  0.382E+00
  21.346  0.883E+00  0.378E+00
  21.356  0.871E+00  0.375E+00
  21.366  0.860E+00  0.372E+00
  21.376  0.850E+00  0.370E+00
  21.386  0.840E+00  0.368E+00
  21.396  0.831E+00  0.367E+00
  21.406  0.822E+00  0.366E+00
  21.416  0.813E+00  0.365E+00
  21.426  0.804E+00  0.363E+00
  21.436  0.794E+00  0.362E+00
  21.446  0.785E+00  0.361E+00
  21.456  0.775E+00  0.359E+00
  21.466  0.765E+00  0.357E+00
  21.476  0.754E+00  0.355E+00
  21.486  0.743E+00  0.352E+00
  21.496  0.732E+00  0.349E+00
  21.506  0.720E+00  0.345E+00
  21.516  0.708E+00  0.342E+00
  21.526  0.696E+00  0.338E+00
  21.536  0.685E+00  0.334E+00
  21.546  0.673E+00  0.331E+00
  21.556  0.662E+00  0.328E+00
  21.566  0.652E+00  0.325E+00
  21.576  0.642E+00  0.322E+00
  21.586  0.633E+00  0.321E+00
  21.596  0.625E+00  0.319E+00
  21.606  0.619E+00  0.319E+00
  21.616  0.613E+00  0.319E+00
  21.626  0.610E+00  0.320E+00
  21.636  0.607E+00  0.321E+00
  21.646  0.607E+00  0.323E+00
  21.656  0.608E+00  0.326E+00
  21.666  0.611E+00  0.329E+00
  21.676  0.616E+00  0.333E+00
  21.686  0.623E+00  0.337E+00
  21.696  0.632E+00  0.342E+00
  21.706  0.643E+00  0.347E+00
  21.716  0.655E+00  0.353E+00
  21.726  0.669E+00  0.359E+00
  21.736  0.684E+00  0.365E+00
  21.746  0.700E+00  0.372E+00
  21.756  0.717E+00  0.380E+00
  21.766  0.734E+00  0.388E+00
  21.776  0.752E+00  0.396E+00
  21.786  0.769E+00  0.405E+00
  21.796  0.785E+00  0.415E+00
  21.806  0.801E+00  0.425E+00
  21.816  0.815E+00  0.436E+00
  21.826  0.829E+00  0.447E+00
  21.836  0.841E+00  0.459E+00
  21.846  0.852E+00  0.472E+00
  21.856  0.862E+00  0.486E+00
  21.866  0.872E+00  0.501E+00
  21.876  0.881E+00  0.517E+00
  21.886  0.889E+00  0.534E+00
  21.896  0.898E+00  0.553E+00
  21.906  0.907E+00  0.573E+00
  21.916  0.917E+00  0.593E+00
  21.926  0.927E+00  0.615E+00
  21.936  0.939E+00  0.637E+00
  21.946  0.951E+00  0.660E+00
  21.956  0.964E+00  0.683E+00
  21.966  0.979E+00  0.706E+00
  21.976  0.993E+00  0.727E+00
  21.986  0.101E+01  0.748E+00
  21.996  0.102E+01  0.767E+00
  22.006  0.104E+01  0.783E+00
  22.016  0.105E+01  0.797E+00
  22.026  0.107E+01  0.808E+00
  22.036  0.108E+01  0.815E+00
  22.046  0.109E+01  0.819E+00
  22.056  0.109E+01  0.820E+00
  22.066  0.110E+01  0.816E+00
  22.076  0.110E+01  0.809E+00
  22.086  0.111E+01  0.799E+00
  22.096  0.111E+01  0.785E+00
  22.106  0.110E+01  0.769E+00
  22.116  0.110E+01  0.750E+00
  22.126  0.109E+01  0.730E+00
  22.136  0.109E+01  0.707E+00
  22.146  0.108E+01  0.683E+00
  22.156  0.107E+01  0.659E+00
  22.166  0.106E+01  0.633E+00
  22.176  0.105E+01  0.607E+00
  22.186  0.104E+01  0.581E+00
  22.196  0.103E+01  0.555E+00
  22.206  0.102E+01  0.530E+00
  22.216  0.101E+01  0.504E+00
  22.226  0.994E+00  0.480E+00
  22.236  0.980E+00  0.455E+00
  22.246  0.966E+00  0.432E+00
  22.256  0.951E+00  0.410E+00
  22.266  0.935E+00  0.388E+00
  22.276  0.918E+00  0.368E+00
  22.286  0.902E+00  0.349E+00
  22.296  0.884E+00  0.332E+00
  22.306  0.867E+00  0.316E+00
  22.316  0.849E+00  0.301E+00
  22.326  0.831E+00  0.289E+00
  22.336  0.814E+00  0.278E+00
  22.346  0.797E+00  0.268E+00
  22.356  0.780E+00  0.260E+00
  22.366  0.764E+00  0.254E+00
  22.376  0.749E+00  0.249E+00
  22.386  0.735E+00  0.244E+00
  22.396  0.722E+00  0.241E+00
  22.406  0.710E+00  0.238E+00
  22.416  0.699E+00  0.237E+00
  22.426  0.690E+00  0.235E+00
  22.436  0.681E+00  0.234E+00
  22.446  0.675E+00  0.233E+00
  22.456  0.669E+00  0.233E+00
  22.466  0.665E+00  0.233E+00
  22.476  0.663E+00  0.233E+00
  22.486  0.662E+00  0.233E+00
  22.496  0.663E+00  0.234E+00
  22.506  0.666E+00  0.235E+00
  22.516  0.670E+00  0.237E+00
  22.526  0.676E+00  0.239E+00
  22.536  0.683E+00  0.241E+00
  22.546  0.692E+00  0.244E+00
  22.556  0.701E+00  0.247E+00
  22.566  0.712E+00  0.250E+00
  22.576  0.723E+00  0.254E+00
  22.586  0.735E+00  0.258E+00
  22.596  0.746E+00  0.261E+00
  22.606  0.758E+00  0.264E+00
  22.616  0.769E+00  0.267E+00
  22.626  0.779E+00  0.270E+00
  22.636  0.787E+00  0.271E+00
  22.646  0.794E+00  0.272E+00
  22.656  0.799E+00  0.272E+00
  22.666  0.802E+00  0.272E+00
  22.676  0.802E+00  0.270E+00
  22.686  0.800E+00  0.267E+00
  22.696  0.794E+00  0.263E+00
  22.706  0.785E+00  0.258E+00
  22.716  0.772E+00  0.252E+00
  22.726  0.756E+00  0.245E+00
  22.736  0.736E+00  0.237E+00
  22.746  0.713E+00  0.228E+00
  22.756  0.687E+00  0.218E+00
  22.766  0.659E+00  0.208E+00
  22.776  0.628E+00  0.197E+00
  22.786  0.596E+00  0.186E+00
  22.796  0.563E+00  0.174E+00
  22.806  0.529E+00  0.163E+00
  22.816  0.496E+00  0.152E+00
  22.826  0.463E+00  0.141E+00
  22.836  0.433E+00  0.131E+00
  22.846  0.405E+00  0.121E+00
  22.856  0.380E+00  0.113E+00
  22.866  0.358E+00  0.105E+00
  22.876  0.341E+00  0.987E-01
  22.886  0.327E+00  0.936E-01
  22.896  0.319E+00  0.898E-01
  22.906  0.315E+00  0.873E-01
  22.916  0.315E+00  0.862E-01
  22.926  0.320E+00  0.862E-01
  22.936  0.329E+00  0.875E-01
  22.946  0.342E+00  0.898E-01
  22.956  0.358E+00  0.931E-01
  22.966  0.376E+00  0.971E-01
  22.976  0.396E+00  0.102E+00
  22.986  0.417E+00  0.107E+00
  22.996  0.438E+00  0.112E+00
  23.006  0.459E+00  0.117E+00
  23.016  0.479E+00  0.123E+00
  23.026  0.497E+00  0.128E+00
  23.036  0.513E+00  0.132E+00
  23.046  0.526E+00  0.137E+00
  23.056  0.536E+00  0.140E+00
  23.066  0.542E+00  0.143E+00
  23.076  0.544E+00  0.145E+00
  23.086  0.543E+00  0.146E+00
  23.096  0.538E+00  0.146E+00
  23.106  0.530E+00  0.146E+00
  23.116  0.519E+00  0.145E+00
  23.126  0.505E+00  0.143E+00
  23.136  0.488E+00  0.140E+00
  23.146  0.470E+00  0.136E+00
  23.156  0.450E+00  0.132E+00
  23.166  0.429E+00  0.127E+00
  23.176  0.407E+00  0.122E+00
  23.186  0.385E+00  0.116E+00
  23.196  0.364E+00  0.110E+00
  23.206  0.343E+00  0.104E+00
  23.216  0.323E+00  0.980E-01
  23.226  0.304E+00  0.919E-01
  23.236  0.287E+00  0.859E-01
  23.246  0.272E+00  0.802E-01
  23.256  0.258E+00  0.748E-01
  23.266  0.247E+00  0.698E-01
  23.276  0.236E+00  0.654E-01
  23.286  0.228E+00  0.615E-01
  23.296  0.222E+00  0.582E-01
  23.306  0.216E+00  0.556E-01
  23.316  0.213E+00  0.536E-01
  23.326  0.210E+00  0.522E-01
  23.336  0.208E+00  0.515E-01
  23.346  0.208E+00  0.513E-01
  23.356  0.208E+00  0.518E-01
  23.366  0.209E+00  0.527E-01
  23.376  0.210E+00  0.541E-01
  23.386  0.212E+00  0.560E-01
  23.396  0.215E+00  0.583E-01
  23.406  0.218E+00  0.609E-01
  23.416  0.222E+00  0.639E-01
  23.426  0.227E+00  0.673E-01
  23.436  0.233E+00  0.709E-01
  23.446  0.240E+00  0.748E-01
  23.456  0.248E+00  0.790E-01
  23.466  0.258E+00  0.834E-01
  23.476  0.268E+00  0.879E-01
  23.486  0.279E+00  0.926E-01
  23.496  0.291E+00  0.973E-01
  23.506  0.304E+00  0.102E+00
  23.516  0.317E+00  0.107E+00
  23.526  0.330E+00  0.111E+00
  23.536  0.342E+00  0.115E+00
  23.546  0.354E+00  0.118E+00
  23.556  0.364E+00  0.121E+00
  23.566  0.373E+00  0.123E+00
  23.576  0.379E+00  0.124E+00
  23.586  0.383E+00  0.124E+00
  23.596  0.385E+00  0.124E+00
  23.606  0.384E+00  0.122E+00
  23.616  0.381E+00  0.120E+00
  23.626  0.375E+00  0.116E+00
  23.636  0.366E+00  0.113E+00
  23.646  0.357E+00  0.108E+00
  23.656  0.345E+00  0.103E+00
  23.666  0.334E+00  0.984E-01
  23.676  0.322E+00  0.934E-01
  23.686  0.310E+00  0.885E-01
  23.696  0.300E+00  0.841E-01
  23.706  0.291E+00  0.801E-01
  23.716  0.284E+00  0.769E-01
  23.726  0.280E+00  0.744E-01
  23.736  0.278E+00  0.727E-01
  23.746  0.280E+00  0.720E-01
  23.756  0.284E+00  0.721E-01
  23.766  0.292E+00  0.731E-01
  23.776  0.302E+00  0.749E-01
  23.786  0.314E+00  0.775E-01
  23.796  0.328E+00  0.806E-01
  23.806  0.344E+00  0.841E-01
  23.816  0.360E+00  0.879E-01
  23.826  0.376E+00  0.919E-01
  23.836  0.392E+00  0.958E-01
  23.846  0.406E+00  0.994E-01
  23.856  0.418E+00  0.103E+00
  23.866  0.428E+00  0.106E+00
  23.876  0.435E+00  0.108E+00
  23.886  0.439E+00  0.109E+00
  23.896  0.439E+00  0.110E+00
  23.906  0.435E+00  0.110E+00
  23.916  0.428E+00  0.108E+00
  23.926  0.418E+00  0.107E+00
  23.936  0.404E+00  0.104E+00
  23.946  0.388E+00  0.101E+00
  23.956  0.370E+00  0.971E-01
  23.966  0.350E+00  0.929E-01
  23.976  0.329E+00  0.884E-01
  23.986  0.308E+00  0.838E-01
  23.996  0.286E+00  0.791E-01
  24.006  0.265E+00  0.745E-01
  24.016  0.245E+00  0.701E-01
  24.026  0.226E+00  0.660E-01
  24.036  0.209E+00  0.622E-01
  24.046  0.193E+00  0.588E-01
  24.056  0.179E+00  0.558E-01
  24.066  0.167E+00  0.531E-01
  24.076  0.156E+00  0.508E-01
  24.086  0.147E+00  0.488E-01
  24.096  0.139E+00  0.470E-01
  24.106  0.131E+00  0.454E-01
  24.116  0.125E+00  0.439E-01
  24.126  0.119E+00  0.425E-01
  24.136  0.114E+00  0.410E-01
  24.146  0.109E+00  0.395E-01
  24.156  0.103E+00  0.378E-01
  24.166  0.978E-01  0.361E-01
  24.176  0.922E-01  0.342E-01
  24.186  0.864E-01  0.322E-01
  24.196  0.804E-01  0.300E-01
  24.206  0.743E-01  0.278E-01
  24.216  0.680E-01  0.255E-01
  24.226  0.618E-01  0.232E-01
  24.236  0.555E-01  0.209E-01
  24.246  0.495E-01  0.186E-01
  24.256  0.436E-01  0.164E-01
  24.266  0.381E-01  0.144E-01
  24.276  0.329E-01  0.124E-01
  24.286  0.282E-01  0.106E-01
  24.296  0.239E-01  0.900E-02
  24.306  0.200E-01  0.754E-02
  24.316  0.166E-01  0.625E-02
  24.326  0.136E-01  0.513E-02
  24.336  0.110E-01  0.416E-02
  24.346  0.886E-02  0.334E-02
  24.356  0.704E-02  0.266E-02
  24.366  0.553E-02  0.209E-02
  24.376  0.430E-02  0.162E-02
  24.386  0.331E-02  0.125E-02
  24.396  0.252E-02  0.950E-03
  24.406  0.189E-02  0.715E-03
  24.416  0.141E-02  0.532E-03
  24.426  0.104E-02  0.392E-03
  24.436  0.758E-03  0.286E-03
  24.446  0.546E-03  0.206E-03
  24.456  0.390E-03  0.147E-03
  24.466  0.275E-03  0.104E-03
  24.476  0.192E-03  0.724E-04
  24.486  0.132E-03  0.500E-04
  24.496  0.905E-04  0.341E-04
  24.506  0.611E-04  0.231E-04
  24.516  0.409E-04  0.154E-04
  24.526  0.270E-04  0.102E-04
  24.536  0.177E-04  0.667E-05
  24.546  0.114E-04  0.432E-05
  24.556  0.733E-05  0.276E-05
