# E (eV)   ldos(E)   pdos(E)    pdos(E)    pdos(E)   
  -3.634  0.622E-08  0.207E-08  0.207E-08  0.207E-08
  -3.624  0.101E-07  0.337E-08  0.337E-08  0.337E-08
  -3.614  0.163E-07  0.544E-08  0.544E-08  0.544E-08
  -3.604  0.260E-07  0.868E-08  0.868E-08  0.868E-08
  -3.594  0.412E-07  0.137E-07  0.137E-07  0.137E-07
  -3.584  0.645E-07  0.215E-07  0.215E-07  0.215E-07
  -3.574  0.100E-06  0.333E-07  0.333E-07  0.333E-07
  -3.564  0.154E-06  0.512E-07  0.512E-07  0.512E-07
  -3.554  0.234E-06  0.779E-07  0.779E-07  0.779E-07
  -3.544  0.352E-06  0.117E-06  0.117E-06  0.117E-06
  -3.534  0.525E-06  0.175E-06  0.175E-06  0.175E-06
  -3.524  0.776E-06  0.259E-06  0.259E-06  0.259E-06
  -3.514  0.114E-05  0.379E-06  0.379E-06  0.379E-06
  -3.504  0.165E-05  0.550E-06  0.550E-06  0.550E-06
  -3.494  0.237E-05  0.790E-06  0.790E-06  0.790E-06
  -3.484  0.338E-05  0.113E-05  0.113E-05  0.113E-05
  -3.474  0.476E-05  0.159E-05  0.159E-05  0.159E-05
  -3.464  0.666E-05  0.222E-05  0.222E-05  0.222E-05
  -3.454  0.923E-05  0.308E-05  0.308E-05  0.308E-05
  -3.444  0.127E-04  0.422E-05  0.422E-05  0.422E-05
  -3.434  0.172E-04  0.575E-05  0.575E-05  0.575E-05
  -3.424  0.233E-04  0.776E-05  0.776E-05  0.776E-05
  -3.414  0.311E-04  0.104E-04  0.104E-04  0.104E-04
  -3.404  0.412E-04  0.137E-04  0.137E-04  0.137E-04
  -3.394  0.542E-04  0.181E-04  0.181E-04  0.181E-04
  -3.384  0.707E-04  0.236E-04  0.236E-04  0.236E-04
  -3.374  0.913E-04  0.304E-04  0.304E-04  0.304E-04
  -3.364  0.117E-03  0.390E-04  0.390E-04  0.390E-04
  -3.354  0.149E-03  0.496E-04  0.496E-04  0.496E-04
  -3.344  0.188E-03  0.625E-04  0.625E-04  0.625E-04
  -3.334  0.235E-03  0.782E-04  0.782E-04  0.782E-04
  -3.324  0.291E-03  0.971E-04  0.971E-04  0.971E-04
  -3.314  0.359E-03  0.120E-03  0.120E-03  0.120E-03
  -3.304  0.438E-03  0.146E-03  0.146E-03  0.146E-03
  -3.294  0.532E-03  0.177E-03  0.177E-03  0.177E-03
  -3.284  0.640E-03  0.213E-03  0.213E-03  0.213E-03
  -3.274  0.766E-03  0.255E-03  0.255E-03  0.255E-03
  -3.264  0.909E-03  0.303E-03  0.303E-03  0.303E-03
  -3.254  0.107E-02  0.357E-03  0.357E-03  0.357E-03
  -3.244  0.126E-02  0.419E-03  0.419E-03  0.419E-03
  -3.234  0.146E-02  0.487E-03  0.487E-03  0.487E-03
  -3.224  0.169E-02  0.564E-03  0.564E-03  0.564E-03
  -3.214  0.194E-02  0.648E-03  0.648E-03  0.648E-03
  -3.204  0.222E-02  0.740E-03  0.740E-03  0.740E-03
  -3.194  0.252E-02  0.841E-03  0.841E-03  0.841E-03
  -3.184  0.285E-02  0.950E-03  0.950E-03  0.950E-03
  -3.174  0.320E-02  0.107E-02  0.107E-02  0.107E-02
  -3.164  0.358E-02  0.119E-02  0.119E-02  0.119E-02
  -3.154  0.398E-02  0.133E-02  0.133E-02  0.133E-02
  -3.144  0.440E-02  0.147E-02  0.147E-02  0.147E-02
  -3.134  0.485E-02  0.162E-02  0.162E-02  0.162E-02
  -3.124  0.532E-02  0.177E-02  0.177E-02  0.177E-02
  -3.114  0.581E-02  0.194E-02  0.194E-02  0.194E-02
  -3.104  0.632E-02  0.211E-02  0.211E-02  0.211E-02
  -3.094  0.685E-02  0.228E-02  0.228E-02  0.228E-02
  -3.084  0.739E-02  0.246E-02  0.246E-02  0.246E-02
  -3.074  0.795E-02  0.265E-02  0.265E-02  0.265E-02
  -3.064  0.852E-02  0.284E-02  0.284E-02  0.284E-02
  -3.054  0.911E-02  0.304E-02  0.304E-02  0.304E-02
  -3.044  0.971E-02  0.324E-02  0.324E-02  0.324E-02
  -3.034  0.103E-01  0.344E-02  0.344E-02  0.344E-02
  -3.024  0.109E-01  0.365E-02  0.365E-02  0.365E-02
  -3.014  0.116E-01  0.385E-02  0.385E-02  0.385E-02
  -3.004  0.122E-01  0.407E-02  0.407E-02  0.407E-02
  -2.994  0.128E-01  0.428E-02  0.428E-02  0.428E-02
  -2.984  0.135E-01  0.449E-02  0.449E-02  0.449E-02
  -2.974  0.141E-01  0.471E-02  0.471E-02  0.471E-02
  -2.964  0.148E-01  0.493E-02  0.493E-02  0.493E-02
  -2.954  0.154E-01  0.515E-02  0.515E-02  0.515E-02
  -2.944  0.161E-01  0.536E-02  0.536E-02  0.536E-02
  -2.934  0.168E-01  0.558E-02  0.558E-02  0.558E-02
  -2.924  0.174E-01  0.581E-02  0.581E-02  0.581E-02
  -2.914  0.181E-01  0.603E-02  0.603E-02  0.603E-02
  -2.904  0.187E-01  0.625E-02  0.625E-02  0.625E-02
  -2.894  0.194E-01  0.647E-02  0.647E-02  0.647E-02
  -2.884  0.201E-01  0.669E-02  0.669E-02  0.669E-02
  -2.874  0.207E-01  0.691E-02  0.691E-02  0.691E-02
  -2.864  0.214E-01  0.713E-02  0.713E-02  0.713E-02
  -2.854  0.221E-01  0.736E-02  0.736E-02  0.736E-02
  -2.844  0.227E-01  0.758E-02  0.758E-02  0.758E-02
  -2.834  0.234E-01  0.780E-02  0.780E-02  0.780E-02
  -2.824  0.241E-01  0.802E-02  0.802E-02  0.802E-02
  -2.814  0.247E-01  0.824E-02  0.824E-02  0.824E-02
  -2.804  0.254E-01  0.846E-02  0.846E-02  0.846E-02
  -2.794  0.260E-01  0.867E-02  0.867E-02  0.867E-02
  -2.784  0.267E-01  0.889E-02  0.889E-02  0.889E-02
  -2.774  0.273E-01  0.911E-02  0.911E-02  0.911E-02
  -2.764  0.280E-01  0.932E-02  0.932E-02  0.932E-02
  -2.754  0.286E-01  0.954E-02  0.954E-02  0.954E-02
  -2.744  0.293E-01  0.976E-02  0.976E-02  0.976E-02
  -2.734  0.299E-01  0.997E-02  0.997E-02  0.997E-02
  -2.724  0.306E-01  0.102E-01  0.102E-01  0.102E-01
  -2.714  0.312E-01  0.104E-01  0.104E-01  0.104E-01
  -2.704  0.318E-01  0.106E-01  0.106E-01  0.106E-01
  -2.694  0.325E-01  0.108E-01  0.108E-01  0.108E-01
  -2.684  0.331E-01  0.110E-01  0.110E-01  0.110E-01
  -2.674  0.338E-01  0.113E-01  0.113E-01  0.113E-01
  -2.664  0.344E-01  0.115E-01  0.115E-01  0.115E-01
  -2.654  0.350E-01  0.117E-01  0.117E-01  0.117E-01
  -2.644  0.356E-01  0.119E-01  0.119E-01  0.119E-01
  -2.634  0.362E-01  0.121E-01  0.121E-01  0.121E-01
  -2.624  0.369E-01  0.123E-01  0.123E-01  0.123E-01
  -2.614  0.375E-01  0.125E-01  0.125E-01  0.125E-01
  -2.604  0.381E-01  0.127E-01  0.127E-01  0.127E-01
  -2.594  0.387E-01  0.129E-01  0.129E-01  0.129E-01
  -2.584  0.393E-01  0.131E-01  0.131E-01  0.131E-01
  -2.574  0.399E-01  0.133E-01  0.133E-01  0.133E-01
  -2.564  0.405E-01  0.135E-01  0.135E-01  0.135E-01
  -2.554  0.411E-01  0.137E-01  0.137E-01  0.137E-01
  -2.544  0.417E-01  0.139E-01  0.139E-01  0.139E-01
  -2.534  0.423E-01  0.141E-01  0.141E-01  0.141E-01
  -2.524  0.429E-01  0.143E-01  0.143E-01  0.143E-01
  -2.514  0.435E-01  0.145E-01  0.145E-01  0.145E-01
  -2.504  0.441E-01  0.147E-01  0.147E-01  0.147E-01
  -2.494  0.447E-01  0.149E-01  0.149E-01  0.149E-01
  -2.484  0.453E-01  0.151E-01  0.151E-01  0.151E-01
  -2.474  0.459E-01  0.153E-01  0.153E-01  0.153E-01
  -2.464  0.465E-01  0.155E-01  0.155E-01  0.155E-01
  -2.454  0.471E-01  0.157E-01  0.157E-01  0.157E-01
  -2.444  0.476E-01  0.159E-01  0.159E-01  0.159E-01
  -2.434  0.482E-01  0.161E-01  0.161E-01  0.161E-01
  -2.424  0.487E-01  0.162E-01  0.162E-01  0.162E-01
  -2.414  0.492E-01  0.164E-01  0.164E-01  0.164E-01
  -2.404  0.498E-01  0.166E-01  0.166E-01  0.166E-01
  -2.394  0.503E-01  0.168E-01  0.168E-01  0.168E-01
  -2.384  0.509E-01  0.170E-01  0.170E-01  0.170E-01
  -2.374  0.514E-01  0.171E-01  0.171E-01  0.171E-01
  -2.364  0.520E-01  0.173E-01  0.173E-01  0.173E-01
  -2.354  0.526E-01  0.175E-01  0.175E-01  0.175E-01
  -2.344  0.531E-01  0.177E-01  0.177E-01  0.177E-01
  -2.334  0.537E-01  0.179E-01  0.179E-01  0.179E-01
  -2.324  0.543E-01  0.181E-01  0.181E-01  0.181E-01
  -2.314  0.549E-01  0.183E-01  0.183E-01  0.183E-01
  -2.304  0.555E-01  0.185E-01  0.185E-01  0.185E-01
  -2.294  0.561E-01  0.187E-01  0.187E-01  0.187E-01
  -2.284  0.566E-01  0.189E-01  0.189E-01  0.189E-01
  -2.274  0.572E-01  0.191E-01  0.191E-01  0.191E-01
  -2.264  0.577E-01  0.192E-01  0.192E-01  0.192E-01
  -2.254  0.582E-01  0.194E-01  0.194E-01  0.194E-01
  -2.244  0.587E-01  0.196E-01  0.196E-01  0.196E-01
  -2.234  0.592E-01  0.197E-01  0.197E-01  0.197E-01
  -2.224  0.596E-01  0.199E-01  0.199E-01  0.199E-01
  -2.214  0.601E-01  0.200E-01  0.200E-01  0.200E-01
  -2.204  0.605E-01  0.202E-01  0.202E-01  0.202E-01
  -2.194  0.610E-01  0.203E-01  0.203E-01  0.203E-01
  -2.184  0.615E-01  0.205E-01  0.205E-01  0.205E-01
  -2.174  0.619E-01  0.206E-01  0.206E-01  0.206E-01
  -2.164  0.624E-01  0.208E-01  0.208E-01  0.208E-01
  -2.154  0.629E-01  0.210E-01  0.210E-01  0.210E-01
  -2.144  0.635E-01  0.212E-01  0.212E-01  0.212E-01
  -2.134  0.641E-01  0.214E-01  0.214E-01  0.214E-01
  -2.124  0.646E-01  0.215E-01  0.215E-01  0.215E-01
  -2.114  0.652E-01  0.217E-01  0.217E-01  0.217E-01
  -2.104  0.658E-01  0.219E-01  0.219E-01  0.219E-01
  -2.094  0.664E-01  0.221E-01  0.221E-01  0.221E-01
  -2.084  0.670E-01  0.223E-01  0.223E-01  0.223E-01
  -2.074  0.676E-01  0.225E-01  0.225E-01  0.225E-01
  -2.064  0.681E-01  0.227E-01  0.227E-01  0.227E-01
  -2.054  0.686E-01  0.229E-01  0.229E-01  0.229E-01
  -2.044  0.691E-01  0.230E-01  0.230E-01  0.230E-01
  -2.034  0.696E-01  0.232E-01  0.232E-01  0.232E-01
  -2.024  0.700E-01  0.233E-01  0.233E-01  0.233E-01
  -2.014  0.704E-01  0.235E-01  0.235E-01  0.235E-01
  -2.004  0.708E-01  0.236E-01  0.236E-01  0.236E-01
  -1.994  0.711E-01  0.237E-01  0.237E-01  0.237E-01
  -1.984  0.715E-01  0.238E-01  0.238E-01  0.238E-01
  -1.974  0.718E-01  0.239E-01  0.239E-01  0.239E-01
  -1.964  0.722E-01  0.241E-01  0.241E-01  0.241E-01
  -1.954  0.726E-01  0.242E-01  0.242E-01  0.242E-01
  -1.944  0.729E-01  0.243E-01  0.243E-01  0.243E-01
  -1.934  0.734E-01  0.245E-01  0.245E-01  0.245E-01
  -1.924  0.738E-01  0.246E-01  0.246E-01  0.246E-01
  -1.914  0.743E-01  0.248E-01  0.248E-01  0.248E-01
  -1.904  0.749E-01  0.250E-01  0.250E-01  0.250E-01
  -1.894  0.754E-01  0.251E-01  0.251E-01  0.251E-01
  -1.884  0.760E-01  0.253E-01  0.253E-01  0.253E-01
  -1.874  0.766E-01  0.255E-01  0.255E-01  0.255E-01
  -1.864  0.772E-01  0.257E-01  0.257E-01  0.257E-01
  -1.854  0.779E-01  0.260E-01  0.260E-01  0.260E-01
  -1.844  0.785E-01  0.262E-01  0.262E-01  0.262E-01
  -1.834  0.791E-01  0.264E-01  0.264E-01  0.264E-01
  -1.824  0.796E-01  0.265E-01  0.265E-01  0.265E-01
  -1.814  0.802E-01  0.267E-01  0.267E-01  0.267E-01
  -1.804  0.807E-01  0.269E-01  0.269E-01  0.269E-01
  -1.794  0.811E-01  0.270E-01  0.270E-01  0.270E-01
  -1.784  0.815E-01  0.272E-01  0.272E-01  0.272E-01
  -1.774  0.818E-01  0.273E-01  0.273E-01  0.273E-01
  -1.764  0.821E-01  0.274E-01  0.274E-01  0.274E-01
  -1.754  0.824E-01  0.275E-01  0.275E-01  0.275E-01
  -1.744  0.826E-01  0.275E-01  0.275E-01  0.275E-01
  -1.734  0.828E-01  0.276E-01  0.276E-01  0.276E-01
  -1.724  0.830E-01  0.277E-01  0.277E-01  0.277E-01
  -1.714  0.833E-01  0.278E-01  0.278E-01  0.278E-01
  -1.704  0.835E-01  0.278E-01  0.278E-01  0.278E-01
  -1.694  0.838E-01  0.279E-01  0.279E-01  0.279E-01
  -1.684  0.841E-01  0.280E-01  0.280E-01  0.280E-01
  -1.674  0.845E-01  0.282E-01  0.282E-01  0.282E-01
  -1.664  0.849E-01  0.283E-01  0.283E-01  0.283E-01
  -1.654  0.854E-01  0.285E-01  0.285E-01  0.285E-01
  -1.644  0.859E-01  0.286E-01  0.286E-01  0.286E-01
  -1.634  0.865E-01  0.288E-01  0.288E-01  0.288E-01
  -1.624  0.872E-01  0.291E-01  0.291E-01  0.291E-01
  -1.614  0.879E-01  0.293E-01  0.293E-01  0.293E-01
  -1.604  0.885E-01  0.295E-01  0.295E-01  0.295E-01
  -1.594  0.892E-01  0.297E-01  0.297E-01  0.297E-01
  -1.584  0.899E-01  0.300E-01  0.300E-01  0.300E-01
  -1.574  0.906E-01  0.302E-01  0.302E-01  0.302E-01
  -1.564  0.912E-01  0.304E-01  0.304E-01  0.304E-01
  -1.554  0.917E-01  0.306E-01  0.306E-01  0.306E-01
  -1.544  0.922E-01  0.307E-01  0.307E-01  0.307E-01
  -1.534  0.926E-01  0.309E-01  0.309E-01  0.309E-01
  -1.524  0.930E-01  0.310E-01  0.310E-01  0.310E-01
  -1.514  0.933E-01  0.311E-01  0.311E-01  0.311E-01
  -1.504  0.935E-01  0.312E-01  0.312E-01  0.312E-01
  -1.494  0.936E-01  0.312E-01  0.312E-01  0.312E-01
  -1.484  0.937E-01  0.312E-01  0.312E-01  0.312E-01
  -1.474  0.938E-01  0.313E-01  0.313E-01  0.313E-01
  -1.464  0.939E-01  0.313E-01  0.313E-01  0.313E-01
  -1.454  0.940E-01  0.313E-01  0.313E-01  0.313E-01
  -1.444  0.941E-01  0.314E-01  0.314E-01  0.314E-01
  -1.434  0.942E-01  0.314E-01  0.314E-01  0.314E-01
  -1.424  0.944E-01  0.315E-01  0.315E-01  0.315E-01
  -1.414  0.947E-01  0.316E-01  0.316E-01  0.316E-01
  -1.404  0.950E-01  0.317E-01  0.317E-01  0.317E-01
  -1.394  0.953E-01  0.318E-01  0.318E-01  0.318E-01
  -1.384  0.958E-01  0.319E-01  0.319E-01  0.319E-01
  -1.374  0.963E-01  0.321E-01  0.321E-01  0.321E-01
  -1.364  0.969E-01  0.323E-01  0.323E-01  0.323E-01
  -1.354  0.975E-01  0.325E-01  0.325E-01  0.325E-01
  -1.344  0.982E-01  0.327E-01  0.327E-01  0.327E-01
  -1.334  0.989E-01  0.330E-01  0.330E-01  0.330E-01
  -1.324  0.996E-01  0.332E-01  0.332E-01  0.332E-01
  -1.314  0.100E+00  0.334E-01  0.334E-01  0.334E-01
  -1.304  0.101E+00  0.337E-01  0.337E-01  0.337E-01
  -1.294  0.102E+00  0.339E-01  0.339E-01  0.339E-01
  -1.284  0.102E+00  0.341E-01  0.341E-01  0.341E-01
  -1.274  0.103E+00  0.343E-01  0.343E-01  0.343E-01
  -1.264  0.103E+00  0.345E-01  0.345E-01  0.345E-01
  -1.254  0.104E+00  0.346E-01  0.346E-01  0.346E-01
  -1.244  0.104E+00  0.348E-01  0.348E-01  0.348E-01
  -1.234  0.105E+00  0.349E-01  0.349E-01  0.349E-01
  -1.224  0.105E+00  0.349E-01  0.349E-01  0.349E-01
  -1.214  0.105E+00  0.350E-01  0.350E-01  0.350E-01
  -1.204  0.105E+00  0.350E-01  0.350E-01  0.350E-01
  -1.194  0.105E+00  0.350E-01  0.350E-01  0.350E-01
  -1.184  0.105E+00  0.350E-01  0.350E-01  0.350E-01
  -1.174  0.105E+00  0.350E-01  0.350E-01  0.350E-01
  -1.164  0.105E+00  0.350E-01  0.350E-01  0.350E-01
  -1.154  0.105E+00  0.350E-01  0.350E-01  0.350E-01
  -1.144  0.105E+00  0.350E-01  0.350E-01  0.350E-01
  -1.134  0.105E+00  0.350E-01  0.350E-01  0.350E-01
  -1.124  0.105E+00  0.350E-01  0.350E-01  0.350E-01
  -1.114  0.105E+00  0.351E-01  0.351E-01  0.351E-01
  -1.104  0.105E+00  0.351E-01  0.351E-01  0.351E-01
  -1.094  0.106E+00  0.352E-01  0.352E-01  0.352E-01
  -1.084  0.106E+00  0.354E-01  0.354E-01  0.354E-01
  -1.074  0.107E+00  0.355E-01  0.355E-01  0.355E-01
  -1.064  0.107E+00  0.357E-01  0.357E-01  0.357E-01
  -1.054  0.108E+00  0.360E-01  0.360E-01  0.360E-01
  -1.044  0.109E+00  0.362E-01  0.362E-01  0.362E-01
  -1.034  0.109E+00  0.365E-01  0.365E-01  0.365E-01
  -1.024  0.110E+00  0.367E-01  0.367E-01  0.367E-01
  -1.014  0.111E+00  0.370E-01  0.370E-01  0.370E-01
  -1.004  0.112E+00  0.373E-01  0.373E-01  0.373E-01
  -0.994  0.113E+00  0.376E-01  0.376E-01  0.376E-01
  -0.984  0.113E+00  0.378E-01  0.378E-01  0.378E-01
  -0.974  0.114E+00  0.380E-01  0.380E-01  0.380E-01
  -0.964  0.115E+00  0.382E-01  0.382E-01  0.382E-01
  -0.954  0.115E+00  0.384E-01  0.384E-01  0.384E-01
  -0.944  0.116E+00  0.386E-01  0.386E-01  0.386E-01
  -0.934  0.116E+00  0.387E-01  0.387E-01  0.387E-01
  -0.924  0.116E+00  0.388E-01  0.388E-01  0.388E-01
  -0.914  0.116E+00  0.388E-01  0.388E-01  0.388E-01
  -0.904  0.116E+00  0.388E-01  0.388E-01  0.388E-01
  -0.894  0.116E+00  0.388E-01  0.388E-01  0.388E-01
  -0.884  0.116E+00  0.388E-01  0.388E-01  0.388E-01
  -0.874  0.116E+00  0.387E-01  0.387E-01  0.387E-01
  -0.864  0.116E+00  0.387E-01  0.387E-01  0.387E-01
  -0.854  0.116E+00  0.386E-01  0.386E-01  0.386E-01
  -0.844  0.116E+00  0.385E-01  0.385E-01  0.385E-01
  -0.834  0.115E+00  0.384E-01  0.384E-01  0.384E-01
  -0.824  0.115E+00  0.384E-01  0.384E-01  0.384E-01
  -0.814  0.115E+00  0.384E-01  0.384E-01  0.384E-01
  -0.804  0.115E+00  0.384E-01  0.384E-01  0.384E-01
  -0.794  0.115E+00  0.384E-01  0.384E-01  0.384E-01
  -0.784  0.115E+00  0.385E-01  0.385E-01  0.385E-01
  -0.774  0.116E+00  0.386E-01  0.386E-01  0.386E-01
  -0.764  0.116E+00  0.387E-01  0.387E-01  0.387E-01
  -0.754  0.117E+00  0.389E-01  0.389E-01  0.389E-01
  -0.744  0.117E+00  0.391E-01  0.391E-01  0.391E-01
  -0.734  0.118E+00  0.394E-01  0.394E-01  0.394E-01
  -0.724  0.119E+00  0.396E-01  0.396E-01  0.396E-01
  -0.714  0.120E+00  0.399E-01  0.399E-01  0.399E-01
  -0.704  0.121E+00  0.403E-01  0.403E-01  0.403E-01
  -0.694  0.122E+00  0.406E-01  0.406E-01  0.406E-01
  -0.684  0.123E+00  0.409E-01  0.409E-01  0.409E-01
  -0.674  0.124E+00  0.412E-01  0.412E-01  0.412E-01
  -0.664  0.124E+00  0.414E-01  0.414E-01  0.414E-01
  -0.654  0.125E+00  0.417E-01  0.417E-01  0.417E-01
  -0.644  0.126E+00  0.419E-01  0.419E-01  0.419E-01
  -0.634  0.126E+00  0.421E-01  0.421E-01  0.421E-01
  -0.624  0.127E+00  0.422E-01  0.422E-01  0.422E-01
  -0.614  0.127E+00  0.423E-01  0.423E-01  0.423E-01
  -0.604  0.127E+00  0.424E-01  0.424E-01  0.424E-01
  -0.594  0.127E+00  0.424E-01  0.424E-01  0.424E-01
  -0.584  0.127E+00  0.424E-01  0.424E-01  0.424E-01
  -0.574  0.127E+00  0.424E-01  0.424E-01  0.424E-01
  -0.564  0.127E+00  0.423E-01  0.423E-01  0.423E-01
  -0.554  0.127E+00  0.423E-01  0.423E-01  0.423E-01
  -0.544  0.127E+00  0.422E-01  0.422E-01  0.422E-01
  -0.534  0.126E+00  0.421E-01  0.421E-01  0.421E-01
  -0.524  0.126E+00  0.421E-01  0.421E-01  0.421E-01
  -0.514  0.126E+00  0.420E-01  0.420E-01  0.420E-01
  -0.504  0.126E+00  0.419E-01  0.419E-01  0.419E-01
  -0.494  0.126E+00  0.419E-01  0.419E-01  0.419E-01
  -0.484  0.126E+00  0.419E-01  0.419E-01  0.419E-01
  -0.474  0.126E+00  0.419E-01  0.419E-01  0.419E-01
  -0.464  0.126E+00  0.419E-01  0.419E-01  0.419E-01
  -0.454  0.126E+00  0.419E-01  0.419E-01  0.419E-01
  -0.444  0.126E+00  0.420E-01  0.420E-01  0.420E-01
  -0.434  0.126E+00  0.420E-01  0.420E-01  0.420E-01
  -0.424  0.126E+00  0.422E-01  0.422E-01  0.422E-01
  -0.414  0.127E+00  0.423E-01  0.423E-01  0.423E-01
  -0.404  0.127E+00  0.424E-01  0.424E-01  0.424E-01
  -0.394  0.128E+00  0.426E-01  0.426E-01  0.426E-01
  -0.384  0.129E+00  0.428E-01  0.428E-01  0.428E-01
  -0.374  0.129E+00  0.431E-01  0.431E-01  0.431E-01
  -0.364  0.130E+00  0.433E-01  0.433E-01  0.433E-01
  -0.354  0.131E+00  0.436E-01  0.436E-01  0.436E-01
  -0.344  0.132E+00  0.439E-01  0.439E-01  0.439E-01
  -0.334  0.133E+00  0.442E-01  0.442E-01  0.442E-01
  -0.324  0.134E+00  0.446E-01  0.446E-01  0.446E-01
  -0.314  0.135E+00  0.449E-01  0.449E-01  0.449E-01
  -0.304  0.135E+00  0.452E-01  0.452E-01  0.452E-01
  -0.294  0.136E+00  0.454E-01  0.454E-01  0.454E-01
  -0.284  0.137E+00  0.457E-01  0.457E-01  0.457E-01
  -0.274  0.138E+00  0.459E-01  0.459E-01  0.459E-01
  -0.264  0.138E+00  0.461E-01  0.461E-01  0.461E-01
  -0.254  0.139E+00  0.462E-01  0.462E-01  0.462E-01
  -0.244  0.139E+00  0.463E-01  0.463E-01  0.463E-01
  -0.234  0.139E+00  0.463E-01  0.463E-01  0.463E-01
  -0.224  0.139E+00  0.463E-01  0.463E-01  0.463E-01
  -0.214  0.139E+00  0.463E-01  0.463E-01  0.463E-01
  -0.204  0.138E+00  0.462E-01  0.462E-01  0.462E-01
  -0.194  0.138E+00  0.460E-01  0.460E-01  0.460E-01
  -0.184  0.138E+00  0.459E-01  0.459E-01  0.459E-01
  -0.174  0.137E+00  0.457E-01  0.457E-01  0.457E-01
  -0.164  0.137E+00  0.455E-01  0.455E-01  0.455E-01
  -0.154  0.136E+00  0.454E-01  0.454E-01  0.454E-01
  -0.144  0.136E+00  0.452E-01  0.452E-01  0.452E-01
  -0.134  0.135E+00  0.450E-01  0.450E-01  0.450E-01
  -0.124  0.135E+00  0.449E-01  0.449E-01  0.449E-01
  -0.114  0.135E+00  0.448E-01  0.448E-01  0.448E-01
  -0.104  0.134E+00  0.448E-01  0.448E-01  0.448E-01
  -0.094  0.134E+00  0.448E-01  0.448E-01  0.448E-01
  -0.084  0.135E+00  0.449E-01  0.449E-01  0.449E-01
  -0.074  0.135E+00  0.449E-01  0.449E-01  0.449E-01
  -0.064  0.135E+00  0.451E-01  0.451E-01  0.451E-01
  -0.054  0.136E+00  0.453E-01  0.453E-01  0.453E-01
  -0.044  0.136E+00  0.455E-01  0.455E-01  0.455E-01
  -0.034  0.137E+00  0.457E-01  0.457E-01  0.457E-01
  -0.024  0.138E+00  0.460E-01  0.460E-01  0.460E-01
  -0.014  0.139E+00  0.463E-01  0.463E-01  0.463E-01
  -0.004  0.140E+00  0.467E-01  0.467E-01  0.467E-01
   0.006  0.141E+00  0.470E-01  0.470E-01  0.470E-01
   0.016  0.142E+00  0.474E-01  0.474E-01  0.474E-01
   0.026  0.143E+00  0.477E-01  0.477E-01  0.477E-01
   0.036  0.144E+00  0.480E-01  0.480E-01  0.480E-01
   0.046  0.145E+00  0.483E-01  0.483E-01  0.483E-01
   0.056  0.146E+00  0.486E-01  0.486E-01  0.486E-01
   0.066  0.147E+00  0.489E-01  0.489E-01  0.489E-01
   0.076  0.147E+00  0.491E-01  0.491E-01  0.491E-01
   0.086  0.148E+00  0.493E-01  0.493E-01  0.493E-01
   0.096  0.148E+00  0.495E-01  0.495E-01  0.495E-01
   0.106  0.149E+00  0.496E-01  0.496E-01  0.496E-01
   0.116  0.149E+00  0.497E-01  0.497E-01  0.497E-01
   0.126  0.149E+00  0.497E-01  0.497E-01  0.497E-01
   0.136  0.149E+00  0.497E-01  0.497E-01  0.497E-01
   0.146  0.149E+00  0.497E-01  0.497E-01  0.497E-01
   0.156  0.149E+00  0.497E-01  0.497E-01  0.497E-01
   0.166  0.149E+00  0.496E-01  0.496E-01  0.496E-01
   0.176  0.148E+00  0.494E-01  0.494E-01  0.494E-01
   0.186  0.148E+00  0.493E-01  0.493E-01  0.493E-01
   0.196  0.147E+00  0.491E-01  0.491E-01  0.491E-01
   0.206  0.147E+00  0.490E-01  0.490E-01  0.490E-01
   0.216  0.146E+00  0.488E-01  0.488E-01  0.488E-01
   0.226  0.146E+00  0.486E-01  0.486E-01  0.486E-01
   0.236  0.145E+00  0.484E-01  0.484E-01  0.484E-01
   0.246  0.145E+00  0.483E-01  0.483E-01  0.483E-01
   0.256  0.144E+00  0.481E-01  0.481E-01  0.481E-01
   0.266  0.144E+00  0.480E-01  0.480E-01  0.480E-01
   0.276  0.144E+00  0.480E-01  0.480E-01  0.480E-01
   0.286  0.144E+00  0.479E-01  0.479E-01  0.479E-01
   0.296  0.144E+00  0.480E-01  0.480E-01  0.480E-01
   0.306  0.144E+00  0.480E-01  0.480E-01  0.480E-01
   0.316  0.145E+00  0.482E-01  0.482E-01  0.482E-01
   0.326  0.145E+00  0.484E-01  0.484E-01  0.484E-01
   0.336  0.146E+00  0.486E-01  0.486E-01  0.486E-01
   0.346  0.147E+00  0.489E-01  0.489E-01  0.489E-01
   0.356  0.147E+00  0.492E-01  0.492E-01  0.492E-01
   0.366  0.148E+00  0.495E-01  0.495E-01  0.495E-01
   0.376  0.150E+00  0.498E-01  0.498E-01  0.498E-01
   0.386  0.151E+00  0.502E-01  0.502E-01  0.502E-01
   0.396  0.152E+00  0.505E-01  0.505E-01  0.505E-01
   0.406  0.153E+00  0.509E-01  0.509E-01  0.509E-01
   0.416  0.154E+00  0.512E-01  0.512E-01  0.512E-01
   0.426  0.155E+00  0.515E-01  0.515E-01  0.515E-01
   0.436  0.155E+00  0.518E-01  0.518E-01  0.518E-01
   0.446  0.156E+00  0.520E-01  0.520E-01  0.520E-01
   0.456  0.157E+00  0.522E-01  0.522E-01  0.522E-01
   0.466  0.157E+00  0.524E-01  0.524E-01  0.524E-01
   0.476  0.158E+00  0.526E-01  0.526E-01  0.526E-01
   0.486  0.158E+00  0.527E-01  0.527E-01  0.527E-01
   0.496  0.158E+00  0.528E-01  0.528E-01  0.528E-01
   0.506  0.158E+00  0.528E-01  0.528E-01  0.528E-01
   0.516  0.159E+00  0.529E-01  0.529E-01  0.529E-01
   0.526  0.159E+00  0.529E-01  0.529E-01  0.529E-01
   0.536  0.159E+00  0.529E-01  0.529E-01  0.529E-01
   0.546  0.159E+00  0.529E-01  0.529E-01  0.529E-01
   0.556  0.159E+00  0.529E-01  0.529E-01  0.529E-01
   0.566  0.158E+00  0.528E-01  0.528E-01  0.528E-01
   0.576  0.158E+00  0.528E-01  0.528E-01  0.528E-01
   0.586  0.158E+00  0.527E-01  0.527E-01  0.527E-01
   0.596  0.158E+00  0.526E-01  0.526E-01  0.526E-01
   0.606  0.158E+00  0.525E-01  0.525E-01  0.525E-01
   0.616  0.157E+00  0.524E-01  0.524E-01  0.524E-01
   0.626  0.157E+00  0.522E-01  0.522E-01  0.522E-01
   0.636  0.156E+00  0.521E-01  0.521E-01  0.521E-01
   0.646  0.156E+00  0.519E-01  0.519E-01  0.519E-01
   0.656  0.155E+00  0.518E-01  0.518E-01  0.518E-01
   0.666  0.155E+00  0.516E-01  0.516E-01  0.516E-01
   0.676  0.154E+00  0.515E-01  0.515E-01  0.515E-01
   0.686  0.154E+00  0.513E-01  0.513E-01  0.513E-01
   0.696  0.154E+00  0.512E-01  0.512E-01  0.512E-01
   0.706  0.153E+00  0.511E-01  0.511E-01  0.511E-01
   0.716  0.153E+00  0.511E-01  0.511E-01  0.511E-01
   0.726  0.153E+00  0.511E-01  0.511E-01  0.511E-01
   0.736  0.154E+00  0.512E-01  0.512E-01  0.512E-01
   0.746  0.154E+00  0.513E-01  0.513E-01  0.513E-01
   0.756  0.154E+00  0.515E-01  0.515E-01  0.515E-01
   0.766  0.155E+00  0.517E-01  0.517E-01  0.517E-01
   0.776  0.156E+00  0.520E-01  0.520E-01  0.520E-01
   0.786  0.157E+00  0.524E-01  0.524E-01  0.524E-01
   0.796  0.158E+00  0.528E-01  0.528E-01  0.528E-01
   0.806  0.160E+00  0.532E-01  0.532E-01  0.532E-01
   0.816  0.161E+00  0.537E-01  0.537E-01  0.537E-01
   0.826  0.162E+00  0.542E-01  0.542E-01  0.542E-01
   0.836  0.164E+00  0.546E-01  0.546E-01  0.546E-01
   0.846  0.165E+00  0.551E-01  0.551E-01  0.551E-01
   0.856  0.167E+00  0.555E-01  0.555E-01  0.555E-01
   0.866  0.168E+00  0.560E-01  0.560E-01  0.560E-01
   0.876  0.169E+00  0.563E-01  0.563E-01  0.563E-01
   0.886  0.170E+00  0.566E-01  0.566E-01  0.566E-01
   0.896  0.171E+00  0.569E-01  0.569E-01  0.569E-01
   0.906  0.171E+00  0.570E-01  0.570E-01  0.570E-01
   0.916  0.171E+00  0.571E-01  0.571E-01  0.571E-01
   0.926  0.171E+00  0.571E-01  0.571E-01  0.571E-01
   0.936  0.171E+00  0.571E-01  0.571E-01  0.571E-01
   0.946  0.171E+00  0.570E-01  0.570E-01  0.570E-01
   0.956  0.170E+00  0.568E-01  0.568E-01  0.568E-01
   0.966  0.170E+00  0.566E-01  0.566E-01  0.566E-01
   0.976  0.169E+00  0.564E-01  0.564E-01  0.564E-01
   0.986  0.168E+00  0.561E-01  0.561E-01  0.561E-01
   0.996  0.167E+00  0.558E-01  0.558E-01  0.558E-01
   1.006  0.166E+00  0.555E-01  0.555E-01  0.555E-01
   1.016  0.166E+00  0.552E-01  0.552E-01  0.552E-01
   1.026  0.165E+00  0.549E-01  0.549E-01  0.549E-01
   1.036  0.164E+00  0.547E-01  0.547E-01  0.547E-01
   1.046  0.164E+00  0.545E-01  0.545E-01  0.545E-01
   1.056  0.163E+00  0.543E-01  0.543E-01  0.543E-01
   1.066  0.163E+00  0.542E-01  0.542E-01  0.542E-01
   1.076  0.162E+00  0.542E-01  0.542E-01  0.542E-01
   1.086  0.162E+00  0.541E-01  0.541E-01  0.541E-01
   1.096  0.162E+00  0.541E-01  0.541E-01  0.541E-01
   1.106  0.162E+00  0.542E-01  0.542E-01  0.542E-01
   1.116  0.163E+00  0.542E-01  0.542E-01  0.542E-01
   1.126  0.163E+00  0.543E-01  0.543E-01  0.543E-01
   1.136  0.163E+00  0.545E-01  0.545E-01  0.545E-01
   1.146  0.164E+00  0.546E-01  0.546E-01  0.546E-01
   1.156  0.164E+00  0.548E-01  0.548E-01  0.548E-01
   1.166  0.165E+00  0.550E-01  0.550E-01  0.550E-01
   1.176  0.165E+00  0.552E-01  0.552E-01  0.552E-01
   1.186  0.166E+00  0.554E-01  0.554E-01  0.554E-01
   1.196  0.167E+00  0.556E-01  0.556E-01  0.556E-01
   1.206  0.168E+00  0.559E-01  0.559E-01  0.559E-01
   1.216  0.168E+00  0.562E-01  0.562E-01  0.562E-01
   1.226  0.169E+00  0.565E-01  0.565E-01  0.565E-01
   1.236  0.170E+00  0.568E-01  0.568E-01  0.568E-01
   1.246  0.171E+00  0.571E-01  0.571E-01  0.571E-01
   1.256  0.172E+00  0.575E-01  0.575E-01  0.575E-01
   1.266  0.173E+00  0.578E-01  0.578E-01  0.578E-01
   1.276  0.174E+00  0.581E-01  0.581E-01  0.581E-01
   1.286  0.175E+00  0.585E-01  0.585E-01  0.585E-01
   1.296  0.176E+00  0.588E-01  0.588E-01  0.588E-01
   1.306  0.177E+00  0.591E-01  0.591E-01  0.591E-01
   1.316  0.178E+00  0.594E-01  0.594E-01  0.594E-01
   1.326  0.179E+00  0.596E-01  0.596E-01  0.596E-01
   1.336  0.179E+00  0.598E-01  0.598E-01  0.598E-01
   1.346  0.180E+00  0.600E-01  0.600E-01  0.600E-01
   1.356  0.180E+00  0.601E-01  0.601E-01  0.601E-01
   1.366  0.180E+00  0.601E-01  0.601E-01  0.601E-01
   1.376  0.180E+00  0.601E-01  0.601E-01  0.601E-01
   1.386  0.180E+00  0.601E-01  0.601E-01  0.601E-01
   1.396  0.180E+00  0.600E-01  0.600E-01  0.600E-01
   1.406  0.180E+00  0.599E-01  0.599E-01  0.599E-01
   1.416  0.179E+00  0.597E-01  0.597E-01  0.597E-01
   1.426  0.179E+00  0.595E-01  0.595E-01  0.595E-01
   1.436  0.178E+00  0.593E-01  0.593E-01  0.593E-01
   1.446  0.177E+00  0.591E-01  0.591E-01  0.591E-01
   1.456  0.177E+00  0.589E-01  0.589E-01  0.589E-01
   1.466  0.176E+00  0.586E-01  0.586E-01  0.586E-01
   1.476  0.175E+00  0.584E-01  0.584E-01  0.584E-01
   1.486  0.174E+00  0.581E-01  0.581E-01  0.581E-01
   1.496  0.174E+00  0.579E-01  0.579E-01  0.579E-01
   1.506  0.173E+00  0.577E-01  0.577E-01  0.577E-01
   1.516  0.173E+00  0.575E-01  0.575E-01  0.575E-01
   1.526  0.172E+00  0.574E-01  0.574E-01  0.574E-01
   1.536  0.172E+00  0.573E-01  0.573E-01  0.573E-01
   1.546  0.172E+00  0.572E-01  0.572E-01  0.572E-01
   1.556  0.172E+00  0.572E-01  0.572E-01  0.572E-01
   1.566  0.172E+00  0.572E-01  0.572E-01  0.572E-01
   1.576  0.172E+00  0.573E-01  0.573E-01  0.573E-01
   1.586  0.172E+00  0.574E-01  0.574E-01  0.574E-01
   1.596  0.173E+00  0.575E-01  0.575E-01  0.575E-01
   1.606  0.173E+00  0.577E-01  0.577E-01  0.577E-01
   1.616  0.174E+00  0.579E-01  0.579E-01  0.579E-01
   1.626  0.174E+00  0.582E-01  0.582E-01  0.582E-01
   1.636  0.175E+00  0.584E-01  0.584E-01  0.584E-01
   1.646  0.176E+00  0.587E-01  0.587E-01  0.587E-01
   1.656  0.177E+00  0.590E-01  0.590E-01  0.590E-01
   1.666  0.178E+00  0.594E-01  0.594E-01  0.594E-01
   1.676  0.179E+00  0.597E-01  0.597E-01  0.597E-01
   1.686  0.180E+00  0.601E-01  0.601E-01  0.601E-01
   1.696  0.181E+00  0.604E-01  0.604E-01  0.604E-01
   1.706  0.182E+00  0.607E-01  0.607E-01  0.607E-01
   1.716  0.183E+00  0.611E-01  0.611E-01  0.611E-01
   1.726  0.184E+00  0.614E-01  0.614E-01  0.614E-01
   1.736  0.185E+00  0.617E-01  0.617E-01  0.617E-01
   1.746  0.186E+00  0.620E-01  0.620E-01  0.620E-01
   1.756  0.187E+00  0.622E-01  0.622E-01  0.622E-01
   1.766  0.187E+00  0.625E-01  0.625E-01  0.625E-01
   1.776  0.188E+00  0.627E-01  0.627E-01  0.627E-01
   1.786  0.189E+00  0.629E-01  0.629E-01  0.629E-01
   1.796  0.189E+00  0.631E-01  0.631E-01  0.631E-01
   1.806  0.190E+00  0.632E-01  0.632E-01  0.632E-01
   1.816  0.190E+00  0.634E-01  0.634E-01  0.634E-01
   1.826  0.190E+00  0.635E-01  0.635E-01  0.635E-01
   1.836  0.191E+00  0.635E-01  0.635E-01  0.635E-01
   1.846  0.191E+00  0.636E-01  0.636E-01  0.636E-01
   1.856  0.191E+00  0.636E-01  0.636E-01  0.636E-01
   1.866  0.191E+00  0.636E-01  0.636E-01  0.636E-01
   1.876  0.191E+00  0.635E-01  0.635E-01  0.635E-01
   1.886  0.190E+00  0.634E-01  0.634E-01  0.634E-01
   1.896  0.190E+00  0.633E-01  0.633E-01  0.633E-01
   1.906  0.189E+00  0.631E-01  0.631E-01  0.631E-01
   1.916  0.189E+00  0.629E-01  0.629E-01  0.629E-01
   1.926  0.188E+00  0.627E-01  0.627E-01  0.627E-01
   1.936  0.187E+00  0.624E-01  0.624E-01  0.624E-01
   1.946  0.186E+00  0.621E-01  0.621E-01  0.621E-01
   1.956  0.185E+00  0.618E-01  0.618E-01  0.618E-01
   1.966  0.184E+00  0.614E-01  0.614E-01  0.614E-01
   1.976  0.183E+00  0.610E-01  0.610E-01  0.610E-01
   1.986  0.182E+00  0.607E-01  0.607E-01  0.607E-01
   1.996  0.181E+00  0.603E-01  0.603E-01  0.603E-01
   2.006  0.180E+00  0.600E-01  0.600E-01  0.600E-01
   2.016  0.179E+00  0.598E-01  0.598E-01  0.598E-01
   2.026  0.179E+00  0.596E-01  0.596E-01  0.596E-01
   2.036  0.178E+00  0.594E-01  0.594E-01  0.594E-01
   2.046  0.178E+00  0.594E-01  0.594E-01  0.594E-01
   2.056  0.178E+00  0.594E-01  0.594E-01  0.594E-01
   2.066  0.179E+00  0.596E-01  0.596E-01  0.596E-01
   2.076  0.179E+00  0.598E-01  0.598E-01  0.598E-01
   2.086  0.180E+00  0.601E-01  0.601E-01  0.601E-01
   2.096  0.182E+00  0.605E-01  0.605E-01  0.605E-01
   2.106  0.183E+00  0.610E-01  0.610E-01  0.610E-01
   2.116  0.185E+00  0.616E-01  0.616E-01  0.616E-01
   2.126  0.187E+00  0.622E-01  0.622E-01  0.622E-01
   2.136  0.188E+00  0.628E-01  0.628E-01  0.628E-01
   2.146  0.190E+00  0.635E-01  0.635E-01  0.635E-01
   2.156  0.192E+00  0.641E-01  0.641E-01  0.641E-01
   2.166  0.194E+00  0.647E-01  0.647E-01  0.647E-01
   2.176  0.196E+00  0.653E-01  0.653E-01  0.653E-01
   2.186  0.197E+00  0.658E-01  0.658E-01  0.658E-01
   2.196  0.199E+00  0.662E-01  0.662E-01  0.662E-01
   2.206  0.200E+00  0.666E-01  0.666E-01  0.666E-01
   2.216  0.201E+00  0.669E-01  0.669E-01  0.669E-01
   2.226  0.201E+00  0.671E-01  0.671E-01  0.671E-01
   2.236  0.202E+00  0.672E-01  0.672E-01  0.672E-01
   2.246  0.202E+00  0.673E-01  0.673E-01  0.673E-01
   2.256  0.202E+00  0.672E-01  0.672E-01  0.672E-01
   2.266  0.202E+00  0.672E-01  0.672E-01  0.672E-01
   2.276  0.201E+00  0.671E-01  0.671E-01  0.671E-01
   2.286  0.201E+00  0.669E-01  0.669E-01  0.669E-01
   2.296  0.200E+00  0.668E-01  0.668E-01  0.668E-01
   2.306  0.200E+00  0.666E-01  0.666E-01  0.666E-01
   2.316  0.199E+00  0.664E-01  0.664E-01  0.664E-01
   2.326  0.199E+00  0.662E-01  0.662E-01  0.662E-01
   2.336  0.198E+00  0.661E-01  0.661E-01  0.661E-01
   2.346  0.198E+00  0.659E-01  0.659E-01  0.659E-01
   2.356  0.197E+00  0.658E-01  0.658E-01  0.658E-01
   2.366  0.197E+00  0.656E-01  0.656E-01  0.656E-01
   2.376  0.197E+00  0.655E-01  0.655E-01  0.655E-01
   2.386  0.196E+00  0.654E-01  0.654E-01  0.654E-01
   2.396  0.196E+00  0.653E-01  0.653E-01  0.653E-01
   2.406  0.196E+00  0.652E-01  0.652E-01  0.652E-01
   2.416  0.196E+00  0.652E-01  0.652E-01  0.652E-01
   2.426  0.195E+00  0.651E-01  0.651E-01  0.651E-01
   2.436  0.195E+00  0.650E-01  0.650E-01  0.650E-01
   2.446  0.195E+00  0.650E-01  0.650E-01  0.650E-01
   2.456  0.195E+00  0.649E-01  0.649E-01  0.649E-01
   2.466  0.195E+00  0.649E-01  0.649E-01  0.649E-01
   2.476  0.194E+00  0.648E-01  0.648E-01  0.648E-01
   2.486  0.194E+00  0.648E-01  0.648E-01  0.648E-01
   2.496  0.194E+00  0.647E-01  0.647E-01  0.647E-01
   2.506  0.194E+00  0.647E-01  0.647E-01  0.647E-01
   2.516  0.194E+00  0.646E-01  0.646E-01  0.646E-01
   2.526  0.194E+00  0.646E-01  0.646E-01  0.646E-01
   2.536  0.194E+00  0.645E-01  0.645E-01  0.645E-01
   2.546  0.194E+00  0.645E-01  0.645E-01  0.645E-01
   2.556  0.194E+00  0.645E-01  0.645E-01  0.645E-01
   2.566  0.194E+00  0.646E-01  0.646E-01  0.646E-01
   2.576  0.194E+00  0.647E-01  0.647E-01  0.647E-01
   2.586  0.194E+00  0.648E-01  0.648E-01  0.648E-01
   2.596  0.195E+00  0.649E-01  0.649E-01  0.649E-01
   2.606  0.195E+00  0.651E-01  0.651E-01  0.651E-01
   2.616  0.196E+00  0.654E-01  0.654E-01  0.654E-01
   2.626  0.197E+00  0.657E-01  0.657E-01  0.657E-01
   2.636  0.198E+00  0.661E-01  0.661E-01  0.661E-01
   2.646  0.199E+00  0.665E-01  0.665E-01  0.665E-01
   2.656  0.201E+00  0.669E-01  0.669E-01  0.669E-01
   2.666  0.202E+00  0.674E-01  0.674E-01  0.674E-01
   2.676  0.204E+00  0.679E-01  0.679E-01  0.679E-01
   2.686  0.205E+00  0.685E-01  0.685E-01  0.685E-01
   2.696  0.207E+00  0.690E-01  0.690E-01  0.690E-01
   2.706  0.209E+00  0.695E-01  0.695E-01  0.695E-01
   2.716  0.210E+00  0.700E-01  0.700E-01  0.700E-01
   2.726  0.211E+00  0.705E-01  0.705E-01  0.705E-01
   2.736  0.213E+00  0.709E-01  0.709E-01  0.709E-01
   2.746  0.214E+00  0.713E-01  0.713E-01  0.713E-01
   2.756  0.215E+00  0.716E-01  0.716E-01  0.716E-01
   2.766  0.215E+00  0.718E-01  0.718E-01  0.718E-01
   2.776  0.216E+00  0.720E-01  0.720E-01  0.720E-01
   2.786  0.216E+00  0.721E-01  0.721E-01  0.721E-01
   2.796  0.216E+00  0.722E-01  0.722E-01  0.722E-01
   2.806  0.216E+00  0.721E-01  0.721E-01  0.721E-01
   2.816  0.216E+00  0.721E-01  0.721E-01  0.721E-01
   2.826  0.216E+00  0.719E-01  0.719E-01  0.719E-01
   2.836  0.215E+00  0.717E-01  0.717E-01  0.717E-01
   2.846  0.214E+00  0.715E-01  0.715E-01  0.715E-01
   2.856  0.214E+00  0.712E-01  0.712E-01  0.712E-01
   2.866  0.213E+00  0.709E-01  0.709E-01  0.709E-01
   2.876  0.212E+00  0.706E-01  0.706E-01  0.706E-01
   2.886  0.211E+00  0.702E-01  0.702E-01  0.702E-01
   2.896  0.210E+00  0.699E-01  0.699E-01  0.699E-01
   2.906  0.209E+00  0.696E-01  0.696E-01  0.696E-01
   2.916  0.208E+00  0.693E-01  0.693E-01  0.693E-01
   2.926  0.207E+00  0.690E-01  0.690E-01  0.690E-01
   2.936  0.206E+00  0.688E-01  0.688E-01  0.688E-01
   2.946  0.206E+00  0.686E-01  0.686E-01  0.686E-01
   2.956  0.205E+00  0.685E-01  0.685E-01  0.685E-01
   2.966  0.205E+00  0.684E-01  0.684E-01  0.684E-01
   2.976  0.205E+00  0.683E-01  0.683E-01  0.683E-01
   2.986  0.205E+00  0.683E-01  0.683E-01  0.683E-01
   2.996  0.205E+00  0.683E-01  0.683E-01  0.683E-01
   3.006  0.205E+00  0.684E-01  0.684E-01  0.684E-01
   3.016  0.206E+00  0.685E-01  0.685E-01  0.685E-01
   3.026  0.206E+00  0.686E-01  0.686E-01  0.686E-01
   3.036  0.206E+00  0.688E-01  0.688E-01  0.688E-01
   3.046  0.207E+00  0.690E-01  0.690E-01  0.690E-01
   3.056  0.207E+00  0.692E-01  0.692E-01  0.692E-01
   3.066  0.208E+00  0.694E-01  0.694E-01  0.694E-01
   3.076  0.209E+00  0.696E-01  0.696E-01  0.696E-01
   3.086  0.210E+00  0.698E-01  0.698E-01  0.698E-01
   3.096  0.210E+00  0.701E-01  0.701E-01  0.701E-01
   3.106  0.211E+00  0.704E-01  0.704E-01  0.704E-01
   3.116  0.212E+00  0.707E-01  0.707E-01  0.707E-01
   3.126  0.213E+00  0.710E-01  0.710E-01  0.710E-01
   3.136  0.214E+00  0.714E-01  0.714E-01  0.714E-01
   3.146  0.215E+00  0.718E-01  0.718E-01  0.718E-01
   3.156  0.217E+00  0.723E-01  0.723E-01  0.723E-01
   3.166  0.218E+00  0.728E-01  0.728E-01  0.728E-01
   3.176  0.220E+00  0.733E-01  0.733E-01  0.733E-01
   3.186  0.222E+00  0.738E-01  0.738E-01  0.738E-01
   3.196  0.223E+00  0.744E-01  0.744E-01  0.744E-01
   3.206  0.225E+00  0.750E-01  0.750E-01  0.750E-01
   3.216  0.227E+00  0.756E-01  0.756E-01  0.756E-01
   3.226  0.229E+00  0.762E-01  0.762E-01  0.762E-01
   3.236  0.231E+00  0.768E-01  0.768E-01  0.768E-01
   3.246  0.232E+00  0.774E-01  0.774E-01  0.774E-01
   3.256  0.234E+00  0.779E-01  0.779E-01  0.779E-01
   3.266  0.235E+00  0.784E-01  0.784E-01  0.784E-01
   3.276  0.236E+00  0.788E-01  0.788E-01  0.788E-01
   3.286  0.238E+00  0.792E-01  0.792E-01  0.792E-01
   3.296  0.238E+00  0.794E-01  0.794E-01  0.794E-01
   3.306  0.239E+00  0.796E-01  0.796E-01  0.796E-01
   3.316  0.239E+00  0.797E-01  0.797E-01  0.797E-01
   3.326  0.239E+00  0.797E-01  0.797E-01  0.797E-01
   3.336  0.239E+00  0.796E-01  0.796E-01  0.796E-01
   3.346  0.238E+00  0.794E-01  0.794E-01  0.794E-01
   3.356  0.238E+00  0.792E-01  0.792E-01  0.792E-01
   3.366  0.237E+00  0.789E-01  0.789E-01  0.789E-01
   3.376  0.236E+00  0.785E-01  0.785E-01  0.785E-01
   3.386  0.234E+00  0.781E-01  0.781E-01  0.781E-01
   3.396  0.233E+00  0.776E-01  0.776E-01  0.776E-01
   3.406  0.232E+00  0.772E-01  0.772E-01  0.772E-01
   3.416  0.230E+00  0.767E-01  0.767E-01  0.767E-01
   3.426  0.229E+00  0.762E-01  0.762E-01  0.762E-01
   3.436  0.227E+00  0.758E-01  0.758E-01  0.758E-01
   3.446  0.226E+00  0.754E-01  0.754E-01  0.754E-01
   3.456  0.225E+00  0.750E-01  0.750E-01  0.750E-01
   3.466  0.224E+00  0.746E-01  0.746E-01  0.746E-01
   3.476  0.223E+00  0.743E-01  0.743E-01  0.743E-01
   3.486  0.222E+00  0.740E-01  0.740E-01  0.740E-01
   3.496  0.221E+00  0.738E-01  0.738E-01  0.738E-01
   3.506  0.221E+00  0.736E-01  0.736E-01  0.736E-01
   3.516  0.220E+00  0.734E-01  0.734E-01  0.734E-01
   3.526  0.220E+00  0.734E-01  0.734E-01  0.734E-01
   3.536  0.220E+00  0.733E-01  0.733E-01  0.733E-01
   3.546  0.220E+00  0.733E-01  0.733E-01  0.733E-01
   3.556  0.220E+00  0.734E-01  0.734E-01  0.734E-01
   3.566  0.221E+00  0.735E-01  0.735E-01  0.735E-01
   3.576  0.221E+00  0.737E-01  0.737E-01  0.737E-01
   3.586  0.222E+00  0.739E-01  0.739E-01  0.739E-01
   3.596  0.223E+00  0.742E-01  0.742E-01  0.742E-01
   3.606  0.224E+00  0.745E-01  0.745E-01  0.745E-01
   3.616  0.225E+00  0.749E-01  0.749E-01  0.749E-01
   3.626  0.226E+00  0.753E-01  0.753E-01  0.753E-01
   3.636  0.227E+00  0.757E-01  0.757E-01  0.757E-01
   3.646  0.228E+00  0.761E-01  0.761E-01  0.761E-01
   3.656  0.230E+00  0.765E-01  0.765E-01  0.765E-01
   3.666  0.231E+00  0.770E-01  0.770E-01  0.770E-01
   3.676  0.232E+00  0.774E-01  0.774E-01  0.774E-01
   3.686  0.233E+00  0.777E-01  0.777E-01  0.777E-01
   3.696  0.234E+00  0.781E-01  0.781E-01  0.781E-01
   3.706  0.235E+00  0.784E-01  0.784E-01  0.784E-01
   3.716  0.236E+00  0.787E-01  0.787E-01  0.787E-01
   3.726  0.237E+00  0.789E-01  0.789E-01  0.789E-01
   3.736  0.237E+00  0.791E-01  0.791E-01  0.791E-01
   3.746  0.238E+00  0.793E-01  0.793E-01  0.793E-01
   3.756  0.238E+00  0.794E-01  0.794E-01  0.794E-01
   3.766  0.239E+00  0.795E-01  0.795E-01  0.795E-01
   3.776  0.239E+00  0.796E-01  0.796E-01  0.796E-01
   3.786  0.239E+00  0.797E-01  0.797E-01  0.797E-01
   3.796  0.239E+00  0.798E-01  0.798E-01  0.798E-01
   3.806  0.240E+00  0.799E-01  0.799E-01  0.799E-01
   3.816  0.240E+00  0.800E-01  0.800E-01  0.800E-01
   3.826  0.240E+00  0.800E-01  0.800E-01  0.800E-01
   3.836  0.240E+00  0.801E-01  0.801E-01  0.801E-01
   3.846  0.241E+00  0.802E-01  0.802E-01  0.802E-01
   3.856  0.241E+00  0.803E-01  0.803E-01  0.803E-01
   3.866  0.241E+00  0.804E-01  0.804E-01  0.804E-01
   3.876  0.241E+00  0.805E-01  0.805E-01  0.805E-01
   3.886  0.241E+00  0.805E-01  0.805E-01  0.805E-01
   3.896  0.242E+00  0.805E-01  0.805E-01  0.805E-01
   3.906  0.241E+00  0.805E-01  0.805E-01  0.805E-01
   3.916  0.241E+00  0.804E-01  0.804E-01  0.804E-01
   3.926  0.241E+00  0.804E-01  0.804E-01  0.804E-01
   3.936  0.241E+00  0.802E-01  0.802E-01  0.802E-01
   3.946  0.240E+00  0.801E-01  0.801E-01  0.801E-01
   3.956  0.240E+00  0.799E-01  0.799E-01  0.799E-01
   3.966  0.239E+00  0.797E-01  0.797E-01  0.797E-01
   3.976  0.238E+00  0.794E-01  0.794E-01  0.794E-01
   3.986  0.237E+00  0.792E-01  0.792E-01  0.792E-01
   3.996  0.237E+00  0.789E-01  0.789E-01  0.789E-01
   4.006  0.236E+00  0.786E-01  0.786E-01  0.786E-01
   4.016  0.235E+00  0.783E-01  0.783E-01  0.783E-01
   4.026  0.234E+00  0.780E-01  0.780E-01  0.780E-01
   4.036  0.233E+00  0.777E-01  0.777E-01  0.777E-01
   4.046  0.232E+00  0.774E-01  0.774E-01  0.774E-01
   4.056  0.231E+00  0.772E-01  0.772E-01  0.772E-01
   4.066  0.231E+00  0.769E-01  0.769E-01  0.769E-01
   4.076  0.230E+00  0.767E-01  0.767E-01  0.767E-01
   4.086  0.229E+00  0.765E-01  0.765E-01  0.765E-01
   4.096  0.229E+00  0.763E-01  0.763E-01  0.763E-01
   4.106  0.229E+00  0.762E-01  0.762E-01  0.762E-01
   4.116  0.228E+00  0.761E-01  0.761E-01  0.761E-01
   4.126  0.228E+00  0.760E-01  0.760E-01  0.760E-01
   4.136  0.228E+00  0.761E-01  0.761E-01  0.761E-01
   4.146  0.228E+00  0.761E-01  0.761E-01  0.761E-01
   4.156  0.229E+00  0.763E-01  0.763E-01  0.763E-01
   4.166  0.229E+00  0.765E-01  0.765E-01  0.765E-01
   4.176  0.230E+00  0.767E-01  0.767E-01  0.767E-01
   4.186  0.231E+00  0.771E-01  0.771E-01  0.771E-01
   4.196  0.232E+00  0.775E-01  0.775E-01  0.775E-01
   4.206  0.234E+00  0.780E-01  0.780E-01  0.780E-01
   4.216  0.235E+00  0.785E-01  0.785E-01  0.785E-01
   4.226  0.237E+00  0.790E-01  0.790E-01  0.790E-01
   4.236  0.239E+00  0.797E-01  0.797E-01  0.797E-01
   4.246  0.241E+00  0.803E-01  0.803E-01  0.803E-01
   4.256  0.243E+00  0.809E-01  0.809E-01  0.809E-01
   4.266  0.245E+00  0.816E-01  0.816E-01  0.816E-01
   4.276  0.247E+00  0.822E-01  0.822E-01  0.822E-01
   4.286  0.249E+00  0.829E-01  0.829E-01  0.829E-01
   4.296  0.250E+00  0.835E-01  0.835E-01  0.835E-01
   4.306  0.252E+00  0.840E-01  0.840E-01  0.840E-01
   4.316  0.254E+00  0.846E-01  0.846E-01  0.846E-01
   4.326  0.255E+00  0.850E-01  0.850E-01  0.850E-01
   4.336  0.256E+00  0.854E-01  0.854E-01  0.854E-01
   4.346  0.257E+00  0.858E-01  0.858E-01  0.858E-01
   4.356  0.258E+00  0.861E-01  0.861E-01  0.861E-01
   4.366  0.259E+00  0.863E-01  0.863E-01  0.863E-01
   4.376  0.259E+00  0.865E-01  0.865E-01  0.865E-01
   4.386  0.260E+00  0.865E-01  0.865E-01  0.865E-01
   4.396  0.260E+00  0.865E-01  0.865E-01  0.865E-01
   4.406  0.259E+00  0.865E-01  0.865E-01  0.865E-01
   4.416  0.259E+00  0.863E-01  0.863E-01  0.863E-01
   4.426  0.258E+00  0.861E-01  0.861E-01  0.861E-01
   4.436  0.258E+00  0.859E-01  0.859E-01  0.859E-01
   4.446  0.257E+00  0.856E-01  0.856E-01  0.856E-01
   4.456  0.256E+00  0.852E-01  0.852E-01  0.852E-01
   4.466  0.254E+00  0.848E-01  0.848E-01  0.848E-01
   4.476  0.253E+00  0.844E-01  0.844E-01  0.844E-01
   4.486  0.252E+00  0.840E-01  0.840E-01  0.840E-01
   4.496  0.251E+00  0.836E-01  0.836E-01  0.836E-01
   4.506  0.250E+00  0.832E-01  0.832E-01  0.832E-01
   4.516  0.248E+00  0.828E-01  0.828E-01  0.828E-01
   4.526  0.247E+00  0.825E-01  0.825E-01  0.825E-01
   4.536  0.246E+00  0.822E-01  0.822E-01  0.822E-01
   4.546  0.246E+00  0.819E-01  0.819E-01  0.819E-01
   4.556  0.245E+00  0.817E-01  0.817E-01  0.817E-01
   4.566  0.244E+00  0.815E-01  0.815E-01  0.815E-01
   4.576  0.244E+00  0.814E-01  0.814E-01  0.814E-01
   4.586  0.244E+00  0.813E-01  0.813E-01  0.813E-01
   4.596  0.244E+00  0.812E-01  0.812E-01  0.812E-01
   4.606  0.244E+00  0.812E-01  0.812E-01  0.812E-01
   4.616  0.244E+00  0.812E-01  0.812E-01  0.812E-01
   4.626  0.244E+00  0.812E-01  0.812E-01  0.812E-01
   4.636  0.244E+00  0.813E-01  0.813E-01  0.813E-01
   4.646  0.244E+00  0.813E-01  0.813E-01  0.813E-01
   4.656  0.244E+00  0.814E-01  0.814E-01  0.814E-01
   4.666  0.245E+00  0.816E-01  0.816E-01  0.816E-01
   4.676  0.245E+00  0.817E-01  0.817E-01  0.817E-01
   4.686  0.246E+00  0.819E-01  0.819E-01  0.819E-01
   4.696  0.246E+00  0.821E-01  0.821E-01  0.821E-01
   4.706  0.247E+00  0.823E-01  0.823E-01  0.823E-01
   4.716  0.248E+00  0.826E-01  0.826E-01  0.826E-01
   4.726  0.249E+00  0.830E-01  0.830E-01  0.830E-01
   4.736  0.250E+00  0.833E-01  0.833E-01  0.833E-01
   4.746  0.251E+00  0.838E-01  0.838E-01  0.838E-01
   4.756  0.253E+00  0.843E-01  0.843E-01  0.843E-01
   4.766  0.254E+00  0.848E-01  0.848E-01  0.848E-01
   4.776  0.256E+00  0.854E-01  0.854E-01  0.854E-01
   4.786  0.258E+00  0.861E-01  0.861E-01  0.861E-01
   4.796  0.260E+00  0.868E-01  0.868E-01  0.868E-01
   4.806  0.263E+00  0.876E-01  0.876E-01  0.876E-01
   4.816  0.265E+00  0.884E-01  0.884E-01  0.884E-01
   4.826  0.268E+00  0.893E-01  0.893E-01  0.893E-01
   4.836  0.271E+00  0.902E-01  0.902E-01  0.902E-01
   4.846  0.273E+00  0.911E-01  0.911E-01  0.911E-01
   4.856  0.276E+00  0.921E-01  0.921E-01  0.921E-01
   4.866  0.279E+00  0.930E-01  0.930E-01  0.930E-01
   4.876  0.282E+00  0.938E-01  0.938E-01  0.938E-01
   4.886  0.284E+00  0.947E-01  0.947E-01  0.947E-01
   4.896  0.286E+00  0.954E-01  0.954E-01  0.954E-01
   4.906  0.288E+00  0.961E-01  0.961E-01  0.961E-01
   4.916  0.290E+00  0.967E-01  0.967E-01  0.967E-01
   4.926  0.292E+00  0.972E-01  0.972E-01  0.972E-01
   4.936  0.293E+00  0.976E-01  0.976E-01  0.976E-01
   4.946  0.294E+00  0.978E-01  0.978E-01  0.978E-01
   4.956  0.294E+00  0.980E-01  0.980E-01  0.980E-01
   4.966  0.294E+00  0.980E-01  0.980E-01  0.980E-01
   4.976  0.293E+00  0.978E-01  0.978E-01  0.978E-01
   4.986  0.293E+00  0.976E-01  0.976E-01  0.976E-01
   4.996  0.292E+00  0.972E-01  0.972E-01  0.972E-01
   5.006  0.290E+00  0.968E-01  0.968E-01  0.968E-01
   5.016  0.289E+00  0.963E-01  0.963E-01  0.963E-01
   5.026  0.287E+00  0.957E-01  0.957E-01  0.957E-01
   5.036  0.285E+00  0.951E-01  0.951E-01  0.951E-01
   5.046  0.283E+00  0.945E-01  0.945E-01  0.945E-01
   5.056  0.282E+00  0.939E-01  0.939E-01  0.939E-01
   5.066  0.280E+00  0.932E-01  0.932E-01  0.932E-01
   5.076  0.278E+00  0.926E-01  0.926E-01  0.926E-01
   5.086  0.276E+00  0.920E-01  0.920E-01  0.920E-01
   5.096  0.274E+00  0.915E-01  0.915E-01  0.915E-01
   5.106  0.273E+00  0.910E-01  0.910E-01  0.910E-01
   5.116  0.272E+00  0.905E-01  0.905E-01  0.905E-01
   5.126  0.270E+00  0.901E-01  0.901E-01  0.901E-01
   5.136  0.269E+00  0.898E-01  0.898E-01  0.898E-01
   5.146  0.269E+00  0.895E-01  0.895E-01  0.895E-01
   5.156  0.268E+00  0.893E-01  0.893E-01  0.893E-01
   5.166  0.268E+00  0.892E-01  0.892E-01  0.892E-01
   5.176  0.268E+00  0.892E-01  0.892E-01  0.892E-01
   5.186  0.268E+00  0.892E-01  0.892E-01  0.892E-01
   5.196  0.268E+00  0.893E-01  0.893E-01  0.893E-01
   5.206  0.268E+00  0.894E-01  0.894E-01  0.894E-01
   5.216  0.269E+00  0.897E-01  0.897E-01  0.897E-01
   5.226  0.270E+00  0.900E-01  0.900E-01  0.900E-01
   5.236  0.271E+00  0.903E-01  0.903E-01  0.903E-01
   5.246  0.272E+00  0.907E-01  0.907E-01  0.907E-01
   5.256  0.274E+00  0.912E-01  0.912E-01  0.912E-01
   5.266  0.275E+00  0.916E-01  0.916E-01  0.916E-01
   5.276  0.276E+00  0.921E-01  0.921E-01  0.921E-01
   5.286  0.278E+00  0.926E-01  0.926E-01  0.926E-01
   5.296  0.279E+00  0.931E-01  0.931E-01  0.931E-01
   5.306  0.281E+00  0.936E-01  0.936E-01  0.936E-01
   5.316  0.282E+00  0.940E-01  0.940E-01  0.940E-01
   5.326  0.283E+00  0.944E-01  0.944E-01  0.944E-01
   5.336  0.284E+00  0.947E-01  0.947E-01  0.947E-01
   5.346  0.285E+00  0.950E-01  0.950E-01  0.950E-01
   5.356  0.285E+00  0.951E-01  0.951E-01  0.951E-01
   5.366  0.286E+00  0.952E-01  0.952E-01  0.952E-01
   5.376  0.286E+00  0.953E-01  0.953E-01  0.953E-01
   5.386  0.286E+00  0.952E-01  0.952E-01  0.952E-01
   5.396  0.285E+00  0.950E-01  0.950E-01  0.950E-01
   5.406  0.284E+00  0.948E-01  0.948E-01  0.948E-01
   5.416  0.283E+00  0.945E-01  0.945E-01  0.945E-01
   5.426  0.282E+00  0.941E-01  0.941E-01  0.941E-01
   5.436  0.281E+00  0.937E-01  0.937E-01  0.937E-01
   5.446  0.280E+00  0.932E-01  0.932E-01  0.932E-01
   5.456  0.278E+00  0.927E-01  0.927E-01  0.927E-01
   5.466  0.277E+00  0.922E-01  0.922E-01  0.922E-01
   5.476  0.275E+00  0.917E-01  0.917E-01  0.917E-01
   5.486  0.274E+00  0.912E-01  0.912E-01  0.912E-01
   5.496  0.272E+00  0.907E-01  0.907E-01  0.907E-01
   5.506  0.271E+00  0.903E-01  0.903E-01  0.903E-01
   5.516  0.270E+00  0.900E-01  0.900E-01  0.900E-01
   5.526  0.269E+00  0.897E-01  0.897E-01  0.897E-01
   5.536  0.268E+00  0.895E-01  0.895E-01  0.895E-01
   5.546  0.268E+00  0.893E-01  0.893E-01  0.893E-01
   5.556  0.268E+00  0.893E-01  0.893E-01  0.893E-01
   5.566  0.268E+00  0.893E-01  0.893E-01  0.893E-01
   5.576  0.268E+00  0.893E-01  0.893E-01  0.893E-01
   5.586  0.268E+00  0.894E-01  0.894E-01  0.894E-01
   5.596  0.269E+00  0.896E-01  0.896E-01  0.896E-01
   5.606  0.269E+00  0.897E-01  0.897E-01  0.897E-01
   5.616  0.270E+00  0.899E-01  0.899E-01  0.899E-01
   5.626  0.270E+00  0.900E-01  0.900E-01  0.900E-01
   5.636  0.270E+00  0.901E-01  0.901E-01  0.901E-01
   5.646  0.271E+00  0.902E-01  0.902E-01  0.902E-01
   5.656  0.270E+00  0.902E-01  0.902E-01  0.902E-01
   5.666  0.270E+00  0.901E-01  0.901E-01  0.901E-01
   5.676  0.270E+00  0.899E-01  0.899E-01  0.899E-01
   5.686  0.269E+00  0.896E-01  0.896E-01  0.896E-01
   5.696  0.268E+00  0.893E-01  0.893E-01  0.893E-01
   5.706  0.267E+00  0.889E-01  0.889E-01  0.889E-01
   5.716  0.265E+00  0.884E-01  0.884E-01  0.884E-01
   5.726  0.263E+00  0.878E-01  0.878E-01  0.878E-01
   5.736  0.262E+00  0.872E-01  0.872E-01  0.872E-01
   5.746  0.260E+00  0.866E-01  0.866E-01  0.866E-01
   5.756  0.258E+00  0.859E-01  0.859E-01  0.859E-01
   5.766  0.256E+00  0.853E-01  0.853E-01  0.853E-01
   5.776  0.254E+00  0.846E-01  0.846E-01  0.846E-01
   5.786  0.252E+00  0.840E-01  0.840E-01  0.840E-01
   5.796  0.250E+00  0.835E-01  0.835E-01  0.835E-01
   5.806  0.249E+00  0.830E-01  0.830E-01  0.830E-01
   5.816  0.248E+00  0.825E-01  0.825E-01  0.825E-01
   5.826  0.247E+00  0.822E-01  0.822E-01  0.822E-01
   5.836  0.246E+00  0.819E-01  0.819E-01  0.819E-01
   5.846  0.245E+00  0.817E-01  0.817E-01  0.817E-01
   5.856  0.245E+00  0.816E-01  0.816E-01  0.816E-01
   5.866  0.245E+00  0.816E-01  0.816E-01  0.816E-01
   5.876  0.245E+00  0.817E-01  0.817E-01  0.817E-01
   5.886  0.245E+00  0.818E-01  0.818E-01  0.818E-01
   5.896  0.246E+00  0.820E-01  0.820E-01  0.820E-01
   5.906  0.247E+00  0.823E-01  0.823E-01  0.823E-01
   5.916  0.248E+00  0.826E-01  0.826E-01  0.826E-01
   5.926  0.249E+00  0.830E-01  0.830E-01  0.830E-01
   5.936  0.250E+00  0.834E-01  0.834E-01  0.834E-01
   5.946  0.251E+00  0.838E-01  0.838E-01  0.838E-01
   5.956  0.253E+00  0.842E-01  0.842E-01  0.842E-01
   5.966  0.254E+00  0.847E-01  0.847E-01  0.847E-01
   5.976  0.255E+00  0.851E-01  0.851E-01  0.851E-01
   5.986  0.256E+00  0.854E-01  0.854E-01  0.854E-01
   5.996  0.257E+00  0.857E-01  0.857E-01  0.857E-01
   6.006  0.258E+00  0.860E-01  0.860E-01  0.860E-01
   6.016  0.259E+00  0.862E-01  0.862E-01  0.862E-01
   6.026  0.259E+00  0.864E-01  0.864E-01  0.864E-01
   6.036  0.259E+00  0.864E-01  0.864E-01  0.864E-01
   6.046  0.259E+00  0.864E-01  0.864E-01  0.864E-01
   6.056  0.259E+00  0.863E-01  0.863E-01  0.863E-01
   6.066  0.258E+00  0.861E-01  0.861E-01  0.861E-01
   6.076  0.258E+00  0.859E-01  0.859E-01  0.859E-01
   6.086  0.257E+00  0.856E-01  0.856E-01  0.856E-01
   6.096  0.256E+00  0.852E-01  0.852E-01  0.852E-01
   6.106  0.254E+00  0.847E-01  0.847E-01  0.847E-01
   6.116  0.253E+00  0.842E-01  0.842E-01  0.842E-01
   6.126  0.251E+00  0.837E-01  0.837E-01  0.837E-01
   6.136  0.249E+00  0.831E-01  0.831E-01  0.831E-01
   6.146  0.248E+00  0.826E-01  0.826E-01  0.826E-01
   6.156  0.246E+00  0.821E-01  0.821E-01  0.821E-01
   6.166  0.245E+00  0.816E-01  0.816E-01  0.816E-01
   6.176  0.244E+00  0.812E-01  0.812E-01  0.812E-01
   6.186  0.243E+00  0.809E-01  0.809E-01  0.809E-01
   6.196  0.242E+00  0.807E-01  0.807E-01  0.807E-01
   6.206  0.242E+00  0.806E-01  0.806E-01  0.806E-01
   6.216  0.242E+00  0.806E-01  0.806E-01  0.806E-01
   6.226  0.242E+00  0.807E-01  0.807E-01  0.807E-01
   6.236  0.243E+00  0.810E-01  0.810E-01  0.810E-01
   6.246  0.244E+00  0.813E-01  0.813E-01  0.813E-01
   6.256  0.245E+00  0.817E-01  0.817E-01  0.817E-01
   6.266  0.247E+00  0.822E-01  0.822E-01  0.822E-01
   6.276  0.248E+00  0.828E-01  0.828E-01  0.828E-01
   6.286  0.250E+00  0.833E-01  0.833E-01  0.833E-01
   6.296  0.251E+00  0.838E-01  0.838E-01  0.838E-01
   6.306  0.253E+00  0.843E-01  0.843E-01  0.843E-01
   6.316  0.254E+00  0.847E-01  0.847E-01  0.847E-01
   6.326  0.255E+00  0.850E-01  0.850E-01  0.850E-01
   6.336  0.255E+00  0.852E-01  0.852E-01  0.852E-01
   6.346  0.256E+00  0.852E-01  0.852E-01  0.852E-01
   6.356  0.255E+00  0.850E-01  0.850E-01  0.850E-01
   6.366  0.254E+00  0.848E-01  0.848E-01  0.848E-01
   6.376  0.253E+00  0.843E-01  0.843E-01  0.843E-01
   6.386  0.251E+00  0.837E-01  0.837E-01  0.837E-01
   6.396  0.249E+00  0.830E-01  0.830E-01  0.830E-01
   6.406  0.247E+00  0.822E-01  0.822E-01  0.822E-01
   6.416  0.244E+00  0.812E-01  0.812E-01  0.812E-01
   6.426  0.241E+00  0.803E-01  0.803E-01  0.803E-01
   6.436  0.238E+00  0.793E-01  0.793E-01  0.793E-01
   6.446  0.235E+00  0.783E-01  0.783E-01  0.783E-01
   6.456  0.232E+00  0.773E-01  0.773E-01  0.773E-01
   6.466  0.229E+00  0.764E-01  0.764E-01  0.764E-01
   6.476  0.227E+00  0.755E-01  0.755E-01  0.755E-01
   6.486  0.224E+00  0.748E-01  0.748E-01  0.748E-01
   6.496  0.223E+00  0.742E-01  0.742E-01  0.742E-01
   6.506  0.221E+00  0.737E-01  0.737E-01  0.737E-01
   6.516  0.220E+00  0.734E-01  0.734E-01  0.734E-01
   6.526  0.220E+00  0.732E-01  0.732E-01  0.732E-01
   6.536  0.219E+00  0.732E-01  0.732E-01  0.732E-01
   6.546  0.220E+00  0.733E-01  0.733E-01  0.733E-01
   6.556  0.221E+00  0.735E-01  0.735E-01  0.735E-01
   6.566  0.222E+00  0.739E-01  0.739E-01  0.739E-01
   6.576  0.223E+00  0.743E-01  0.743E-01  0.743E-01
   6.586  0.225E+00  0.749E-01  0.749E-01  0.749E-01
   6.596  0.226E+00  0.755E-01  0.755E-01  0.755E-01
   6.606  0.228E+00  0.761E-01  0.761E-01  0.761E-01
   6.616  0.230E+00  0.768E-01  0.768E-01  0.768E-01
   6.626  0.232E+00  0.774E-01  0.774E-01  0.774E-01
   6.636  0.234E+00  0.781E-01  0.781E-01  0.781E-01
   6.646  0.236E+00  0.787E-01  0.787E-01  0.787E-01
   6.656  0.238E+00  0.792E-01  0.792E-01  0.792E-01
   6.666  0.239E+00  0.797E-01  0.797E-01  0.797E-01
   6.676  0.240E+00  0.801E-01  0.801E-01  0.801E-01
   6.686  0.241E+00  0.804E-01  0.804E-01  0.804E-01
   6.696  0.242E+00  0.807E-01  0.807E-01  0.807E-01
   6.706  0.242E+00  0.808E-01  0.808E-01  0.808E-01
   6.716  0.243E+00  0.809E-01  0.809E-01  0.809E-01
   6.726  0.243E+00  0.809E-01  0.809E-01  0.809E-01
   6.736  0.243E+00  0.809E-01  0.809E-01  0.809E-01
   6.746  0.242E+00  0.807E-01  0.807E-01  0.807E-01
   6.756  0.242E+00  0.805E-01  0.805E-01  0.805E-01
   6.766  0.241E+00  0.803E-01  0.803E-01  0.803E-01
   6.776  0.240E+00  0.800E-01  0.800E-01  0.800E-01
   6.786  0.239E+00  0.796E-01  0.796E-01  0.796E-01
   6.796  0.237E+00  0.792E-01  0.792E-01  0.792E-01
   6.806  0.236E+00  0.787E-01  0.787E-01  0.787E-01
   6.816  0.235E+00  0.782E-01  0.782E-01  0.782E-01
   6.826  0.233E+00  0.777E-01  0.777E-01  0.777E-01
   6.836  0.231E+00  0.771E-01  0.771E-01  0.771E-01
   6.846  0.230E+00  0.766E-01  0.766E-01  0.766E-01
   6.856  0.228E+00  0.761E-01  0.761E-01  0.761E-01
   6.866  0.227E+00  0.756E-01  0.756E-01  0.756E-01
   6.876  0.226E+00  0.752E-01  0.752E-01  0.752E-01
   6.886  0.224E+00  0.748E-01  0.748E-01  0.748E-01
   6.896  0.224E+00  0.745E-01  0.745E-01  0.745E-01
   6.906  0.223E+00  0.743E-01  0.743E-01  0.743E-01
   6.916  0.223E+00  0.742E-01  0.742E-01  0.742E-01
   6.926  0.223E+00  0.742E-01  0.742E-01  0.742E-01
   6.936  0.223E+00  0.743E-01  0.743E-01  0.743E-01
   6.946  0.223E+00  0.744E-01  0.744E-01  0.744E-01
   6.956  0.224E+00  0.746E-01  0.746E-01  0.746E-01
   6.966  0.225E+00  0.749E-01  0.749E-01  0.749E-01
   6.976  0.226E+00  0.752E-01  0.752E-01  0.752E-01
   6.986  0.226E+00  0.755E-01  0.755E-01  0.755E-01
   6.996  0.227E+00  0.758E-01  0.758E-01  0.758E-01
   7.006  0.228E+00  0.760E-01  0.760E-01  0.760E-01
   7.016  0.228E+00  0.762E-01  0.762E-01  0.762E-01
   7.026  0.229E+00  0.763E-01  0.763E-01  0.763E-01
   7.036  0.229E+00  0.763E-01  0.763E-01  0.763E-01
   7.046  0.229E+00  0.762E-01  0.762E-01  0.762E-01
   7.056  0.228E+00  0.760E-01  0.760E-01  0.760E-01
   7.066  0.227E+00  0.758E-01  0.758E-01  0.758E-01
   7.076  0.226E+00  0.754E-01  0.754E-01  0.754E-01
   7.086  0.225E+00  0.750E-01  0.750E-01  0.750E-01
   7.096  0.224E+00  0.746E-01  0.746E-01  0.746E-01
   7.106  0.222E+00  0.741E-01  0.741E-01  0.741E-01
   7.116  0.221E+00  0.736E-01  0.736E-01  0.736E-01
   7.126  0.219E+00  0.731E-01  0.731E-01  0.731E-01
   7.136  0.218E+00  0.727E-01  0.727E-01  0.727E-01
   7.146  0.217E+00  0.723E-01  0.723E-01  0.723E-01
   7.156  0.216E+00  0.719E-01  0.719E-01  0.719E-01
   7.166  0.215E+00  0.716E-01  0.716E-01  0.716E-01
   7.176  0.214E+00  0.714E-01  0.714E-01  0.714E-01
   7.186  0.214E+00  0.713E-01  0.713E-01  0.713E-01
   7.196  0.214E+00  0.712E-01  0.712E-01  0.712E-01
   7.206  0.214E+00  0.712E-01  0.712E-01  0.712E-01
   7.216  0.214E+00  0.713E-01  0.713E-01  0.713E-01
   7.226  0.214E+00  0.715E-01  0.715E-01  0.715E-01
   7.236  0.215E+00  0.716E-01  0.716E-01  0.716E-01
   7.246  0.216E+00  0.719E-01  0.719E-01  0.719E-01
   7.256  0.216E+00  0.721E-01  0.721E-01  0.721E-01
   7.266  0.217E+00  0.724E-01  0.724E-01  0.724E-01
   7.276  0.218E+00  0.726E-01  0.726E-01  0.726E-01
   7.286  0.219E+00  0.729E-01  0.729E-01  0.729E-01
   7.296  0.219E+00  0.731E-01  0.731E-01  0.731E-01
   7.306  0.220E+00  0.733E-01  0.733E-01  0.733E-01
   7.316  0.221E+00  0.735E-01  0.735E-01  0.735E-01
   7.326  0.221E+00  0.737E-01  0.737E-01  0.737E-01
   7.336  0.221E+00  0.737E-01  0.737E-01  0.737E-01
   7.346  0.221E+00  0.738E-01  0.738E-01  0.738E-01
   7.356  0.221E+00  0.738E-01  0.738E-01  0.738E-01
   7.366  0.221E+00  0.737E-01  0.737E-01  0.737E-01
   7.376  0.221E+00  0.736E-01  0.736E-01  0.736E-01
   7.386  0.220E+00  0.734E-01  0.734E-01  0.734E-01
   7.396  0.219E+00  0.731E-01  0.731E-01  0.731E-01
   7.406  0.219E+00  0.729E-01  0.729E-01  0.729E-01
   7.416  0.218E+00  0.726E-01  0.726E-01  0.726E-01
   7.426  0.217E+00  0.722E-01  0.722E-01  0.722E-01
   7.436  0.216E+00  0.719E-01  0.719E-01  0.719E-01
   7.446  0.215E+00  0.716E-01  0.716E-01  0.716E-01
   7.456  0.214E+00  0.713E-01  0.713E-01  0.713E-01
   7.466  0.213E+00  0.710E-01  0.710E-01  0.710E-01
   7.476  0.212E+00  0.707E-01  0.707E-01  0.707E-01
   7.486  0.211E+00  0.705E-01  0.705E-01  0.705E-01
   7.496  0.211E+00  0.703E-01  0.703E-01  0.703E-01
   7.506  0.211E+00  0.702E-01  0.702E-01  0.702E-01
   7.516  0.211E+00  0.702E-01  0.702E-01  0.702E-01
   7.526  0.211E+00  0.702E-01  0.702E-01  0.702E-01
   7.536  0.211E+00  0.703E-01  0.703E-01  0.703E-01
   7.546  0.211E+00  0.705E-01  0.705E-01  0.705E-01
   7.556  0.212E+00  0.707E-01  0.707E-01  0.707E-01
   7.566  0.213E+00  0.710E-01  0.710E-01  0.710E-01
   7.576  0.214E+00  0.713E-01  0.713E-01  0.713E-01
   7.586  0.215E+00  0.716E-01  0.716E-01  0.716E-01
   7.596  0.216E+00  0.719E-01  0.719E-01  0.719E-01
   7.606  0.217E+00  0.723E-01  0.723E-01  0.723E-01
   7.616  0.218E+00  0.726E-01  0.726E-01  0.726E-01
   7.626  0.219E+00  0.729E-01  0.729E-01  0.729E-01
   7.636  0.220E+00  0.732E-01  0.732E-01  0.732E-01
   7.646  0.220E+00  0.735E-01  0.735E-01  0.735E-01
   7.656  0.221E+00  0.737E-01  0.737E-01  0.737E-01
   7.666  0.221E+00  0.738E-01  0.738E-01  0.738E-01
   7.676  0.222E+00  0.739E-01  0.739E-01  0.739E-01
   7.686  0.222E+00  0.739E-01  0.739E-01  0.739E-01
   7.696  0.221E+00  0.738E-01  0.738E-01  0.738E-01
   7.706  0.221E+00  0.737E-01  0.737E-01  0.737E-01
   7.716  0.221E+00  0.736E-01  0.736E-01  0.736E-01
   7.726  0.220E+00  0.734E-01  0.734E-01  0.734E-01
   7.736  0.219E+00  0.732E-01  0.732E-01  0.732E-01
   7.746  0.219E+00  0.729E-01  0.729E-01  0.729E-01
   7.756  0.218E+00  0.727E-01  0.727E-01  0.727E-01
   7.766  0.217E+00  0.724E-01  0.724E-01  0.724E-01
   7.776  0.216E+00  0.722E-01  0.722E-01  0.722E-01
   7.786  0.216E+00  0.719E-01  0.719E-01  0.719E-01
   7.796  0.215E+00  0.717E-01  0.717E-01  0.717E-01
   7.806  0.215E+00  0.716E-01  0.716E-01  0.716E-01
   7.816  0.214E+00  0.715E-01  0.715E-01  0.715E-01
   7.826  0.214E+00  0.714E-01  0.714E-01  0.714E-01
   7.836  0.214E+00  0.714E-01  0.714E-01  0.714E-01
   7.846  0.214E+00  0.714E-01  0.714E-01  0.714E-01
   7.856  0.214E+00  0.715E-01  0.715E-01  0.715E-01
   7.866  0.215E+00  0.717E-01  0.717E-01  0.717E-01
   7.876  0.216E+00  0.719E-01  0.719E-01  0.719E-01
   7.886  0.217E+00  0.722E-01  0.722E-01  0.722E-01
   7.896  0.218E+00  0.725E-01  0.725E-01  0.725E-01
   7.906  0.219E+00  0.730E-01  0.730E-01  0.730E-01
   7.916  0.220E+00  0.735E-01  0.735E-01  0.735E-01
   7.926  0.222E+00  0.740E-01  0.740E-01  0.740E-01
   7.936  0.224E+00  0.746E-01  0.746E-01  0.746E-01
   7.946  0.226E+00  0.752E-01  0.752E-01  0.752E-01
   7.956  0.228E+00  0.759E-01  0.759E-01  0.759E-01
   7.966  0.230E+00  0.766E-01  0.766E-01  0.766E-01
   7.976  0.232E+00  0.773E-01  0.773E-01  0.773E-01
   7.986  0.234E+00  0.780E-01  0.780E-01  0.780E-01
   7.996  0.236E+00  0.787E-01  0.787E-01  0.787E-01
   8.006  0.238E+00  0.794E-01  0.794E-01  0.794E-01
   8.016  0.240E+00  0.800E-01  0.800E-01  0.800E-01
   8.026  0.242E+00  0.806E-01  0.806E-01  0.806E-01
   8.036  0.243E+00  0.812E-01  0.812E-01  0.812E-01
   8.046  0.245E+00  0.816E-01  0.816E-01  0.816E-01
   8.056  0.246E+00  0.821E-01  0.821E-01  0.821E-01
   8.066  0.247E+00  0.824E-01  0.824E-01  0.824E-01
   8.076  0.248E+00  0.827E-01  0.827E-01  0.827E-01
   8.086  0.249E+00  0.829E-01  0.829E-01  0.829E-01
   8.096  0.249E+00  0.831E-01  0.831E-01  0.831E-01
   8.106  0.249E+00  0.832E-01  0.832E-01  0.832E-01
   8.116  0.250E+00  0.832E-01  0.832E-01  0.832E-01
   8.126  0.250E+00  0.832E-01  0.832E-01  0.832E-01
   8.136  0.249E+00  0.831E-01  0.831E-01  0.831E-01
   8.146  0.249E+00  0.830E-01  0.830E-01  0.830E-01
   8.156  0.249E+00  0.829E-01  0.829E-01  0.829E-01
   8.166  0.248E+00  0.827E-01  0.827E-01  0.827E-01
   8.176  0.248E+00  0.825E-01  0.825E-01  0.825E-01
   8.186  0.247E+00  0.823E-01  0.823E-01  0.823E-01
   8.196  0.246E+00  0.822E-01  0.822E-01  0.822E-01
   8.206  0.246E+00  0.820E-01  0.820E-01  0.820E-01
   8.216  0.245E+00  0.818E-01  0.818E-01  0.818E-01
   8.226  0.245E+00  0.816E-01  0.816E-01  0.816E-01
   8.236  0.244E+00  0.814E-01  0.814E-01  0.814E-01
   8.246  0.244E+00  0.812E-01  0.812E-01  0.812E-01
   8.256  0.243E+00  0.810E-01  0.810E-01  0.810E-01
   8.266  0.242E+00  0.808E-01  0.808E-01  0.808E-01
   8.276  0.242E+00  0.806E-01  0.806E-01  0.806E-01
   8.286  0.241E+00  0.805E-01  0.805E-01  0.805E-01
   8.296  0.241E+00  0.803E-01  0.803E-01  0.803E-01
   8.306  0.240E+00  0.801E-01  0.801E-01  0.801E-01
   8.316  0.240E+00  0.800E-01  0.800E-01  0.800E-01
   8.326  0.239E+00  0.798E-01  0.798E-01  0.798E-01
   8.336  0.239E+00  0.796E-01  0.796E-01  0.796E-01
   8.346  0.238E+00  0.794E-01  0.794E-01  0.794E-01
   8.356  0.238E+00  0.793E-01  0.793E-01  0.793E-01
   8.366  0.237E+00  0.791E-01  0.791E-01  0.791E-01
   8.376  0.237E+00  0.789E-01  0.789E-01  0.789E-01
   8.386  0.236E+00  0.788E-01  0.788E-01  0.788E-01
   8.396  0.236E+00  0.786E-01  0.786E-01  0.786E-01
   8.406  0.236E+00  0.785E-01  0.785E-01  0.785E-01
   8.416  0.235E+00  0.784E-01  0.784E-01  0.784E-01
   8.426  0.235E+00  0.783E-01  0.783E-01  0.783E-01
   8.436  0.235E+00  0.783E-01  0.783E-01  0.783E-01
   8.446  0.235E+00  0.783E-01  0.783E-01  0.783E-01
   8.456  0.235E+00  0.783E-01  0.783E-01  0.783E-01
   8.466  0.235E+00  0.784E-01  0.784E-01  0.784E-01
   8.476  0.235E+00  0.785E-01  0.785E-01  0.785E-01
   8.486  0.236E+00  0.786E-01  0.786E-01  0.786E-01
   8.496  0.236E+00  0.788E-01  0.788E-01  0.788E-01
   8.506  0.237E+00  0.790E-01  0.790E-01  0.790E-01
   8.516  0.238E+00  0.792E-01  0.792E-01  0.792E-01
   8.526  0.238E+00  0.795E-01  0.795E-01  0.795E-01
   8.536  0.239E+00  0.798E-01  0.798E-01  0.798E-01
   8.546  0.240E+00  0.801E-01  0.801E-01  0.801E-01
   8.556  0.241E+00  0.804E-01  0.804E-01  0.804E-01
   8.566  0.242E+00  0.808E-01  0.808E-01  0.808E-01
   8.576  0.244E+00  0.812E-01  0.812E-01  0.812E-01
   8.586  0.245E+00  0.815E-01  0.815E-01  0.815E-01
   8.596  0.246E+00  0.819E-01  0.819E-01  0.819E-01
   8.606  0.247E+00  0.823E-01  0.823E-01  0.823E-01
   8.616  0.248E+00  0.827E-01  0.827E-01  0.827E-01
   8.626  0.249E+00  0.830E-01  0.830E-01  0.830E-01
   8.636  0.250E+00  0.834E-01  0.834E-01  0.834E-01
   8.646  0.251E+00  0.837E-01  0.837E-01  0.837E-01
   8.656  0.252E+00  0.839E-01  0.839E-01  0.839E-01
   8.666  0.253E+00  0.842E-01  0.842E-01  0.842E-01
   8.676  0.253E+00  0.844E-01  0.844E-01  0.844E-01
   8.686  0.254E+00  0.845E-01  0.845E-01  0.845E-01
   8.696  0.254E+00  0.846E-01  0.846E-01  0.846E-01
   8.706  0.254E+00  0.847E-01  0.847E-01  0.847E-01
   8.716  0.254E+00  0.846E-01  0.846E-01  0.846E-01
   8.726  0.254E+00  0.846E-01  0.846E-01  0.846E-01
   8.736  0.253E+00  0.845E-01  0.845E-01  0.845E-01
   8.746  0.253E+00  0.843E-01  0.843E-01  0.843E-01
   8.756  0.252E+00  0.841E-01  0.841E-01  0.841E-01
   8.766  0.252E+00  0.838E-01  0.838E-01  0.838E-01
   8.776  0.251E+00  0.836E-01  0.836E-01  0.836E-01
   8.786  0.250E+00  0.833E-01  0.833E-01  0.833E-01
   8.796  0.249E+00  0.830E-01  0.830E-01  0.830E-01
   8.806  0.248E+00  0.826E-01  0.826E-01  0.826E-01
   8.816  0.247E+00  0.823E-01  0.823E-01  0.823E-01
   8.826  0.246E+00  0.820E-01  0.820E-01  0.820E-01
   8.836  0.245E+00  0.817E-01  0.817E-01  0.817E-01
   8.846  0.244E+00  0.815E-01  0.815E-01  0.815E-01
   8.856  0.244E+00  0.812E-01  0.812E-01  0.812E-01
   8.866  0.243E+00  0.810E-01  0.810E-01  0.810E-01
   8.876  0.243E+00  0.808E-01  0.808E-01  0.808E-01
   8.886  0.242E+00  0.807E-01  0.807E-01  0.807E-01
   8.896  0.242E+00  0.806E-01  0.806E-01  0.806E-01
   8.906  0.242E+00  0.806E-01  0.806E-01  0.806E-01
   8.916  0.242E+00  0.805E-01  0.805E-01  0.805E-01
   8.926  0.242E+00  0.806E-01  0.806E-01  0.806E-01
   8.936  0.242E+00  0.806E-01  0.806E-01  0.806E-01
   8.946  0.242E+00  0.807E-01  0.807E-01  0.807E-01
   8.956  0.242E+00  0.807E-01  0.807E-01  0.807E-01
   8.966  0.242E+00  0.808E-01  0.808E-01  0.808E-01
   8.976  0.243E+00  0.809E-01  0.809E-01  0.809E-01
   8.986  0.243E+00  0.809E-01  0.809E-01  0.809E-01
   8.996  0.243E+00  0.810E-01  0.810E-01  0.810E-01
   9.006  0.243E+00  0.810E-01  0.810E-01  0.810E-01
   9.016  0.243E+00  0.811E-01  0.811E-01  0.811E-01
   9.026  0.243E+00  0.811E-01  0.811E-01  0.811E-01
   9.036  0.243E+00  0.810E-01  0.810E-01  0.810E-01
   9.046  0.243E+00  0.810E-01  0.810E-01  0.810E-01
   9.056  0.243E+00  0.809E-01  0.809E-01  0.809E-01
   9.066  0.243E+00  0.809E-01  0.809E-01  0.809E-01
   9.076  0.242E+00  0.808E-01  0.808E-01  0.808E-01
   9.086  0.242E+00  0.807E-01  0.807E-01  0.807E-01
   9.096  0.242E+00  0.806E-01  0.806E-01  0.806E-01
   9.106  0.241E+00  0.805E-01  0.805E-01  0.805E-01
   9.116  0.241E+00  0.804E-01  0.804E-01  0.804E-01
   9.126  0.241E+00  0.803E-01  0.803E-01  0.803E-01
   9.136  0.241E+00  0.802E-01  0.802E-01  0.802E-01
   9.146  0.241E+00  0.802E-01  0.802E-01  0.802E-01
   9.156  0.240E+00  0.801E-01  0.801E-01  0.801E-01
   9.166  0.240E+00  0.801E-01  0.801E-01  0.801E-01
   9.176  0.240E+00  0.801E-01  0.801E-01  0.801E-01
   9.186  0.241E+00  0.802E-01  0.802E-01  0.802E-01
   9.196  0.241E+00  0.802E-01  0.802E-01  0.802E-01
   9.206  0.241E+00  0.803E-01  0.803E-01  0.803E-01
   9.216  0.241E+00  0.804E-01  0.804E-01  0.804E-01
   9.226  0.242E+00  0.806E-01  0.806E-01  0.806E-01
   9.236  0.242E+00  0.807E-01  0.807E-01  0.807E-01
   9.246  0.243E+00  0.809E-01  0.809E-01  0.809E-01
   9.256  0.243E+00  0.811E-01  0.811E-01  0.811E-01
   9.266  0.244E+00  0.813E-01  0.813E-01  0.813E-01
   9.276  0.245E+00  0.815E-01  0.815E-01  0.815E-01
   9.286  0.245E+00  0.818E-01  0.818E-01  0.818E-01
   9.296  0.246E+00  0.820E-01  0.820E-01  0.820E-01
   9.306  0.247E+00  0.822E-01  0.822E-01  0.822E-01
   9.316  0.247E+00  0.825E-01  0.825E-01  0.825E-01
   9.326  0.248E+00  0.827E-01  0.827E-01  0.827E-01
   9.336  0.249E+00  0.830E-01  0.830E-01  0.830E-01
   9.346  0.250E+00  0.832E-01  0.832E-01  0.832E-01
   9.356  0.251E+00  0.835E-01  0.835E-01  0.835E-01
   9.366  0.251E+00  0.838E-01  0.838E-01  0.838E-01
   9.376  0.252E+00  0.841E-01  0.841E-01  0.841E-01
   9.386  0.253E+00  0.844E-01  0.844E-01  0.844E-01
   9.396  0.254E+00  0.847E-01  0.847E-01  0.847E-01
   9.406  0.255E+00  0.851E-01  0.851E-01  0.851E-01
   9.416  0.256E+00  0.855E-01  0.855E-01  0.855E-01
   9.426  0.258E+00  0.858E-01  0.858E-01  0.858E-01
   9.436  0.259E+00  0.862E-01  0.862E-01  0.862E-01
   9.446  0.260E+00  0.866E-01  0.866E-01  0.866E-01
   9.456  0.261E+00  0.870E-01  0.870E-01  0.870E-01
   9.466  0.262E+00  0.874E-01  0.874E-01  0.874E-01
   9.476  0.263E+00  0.877E-01  0.877E-01  0.877E-01
   9.486  0.264E+00  0.880E-01  0.880E-01  0.880E-01
   9.496  0.265E+00  0.882E-01  0.882E-01  0.882E-01
   9.506  0.265E+00  0.884E-01  0.884E-01  0.884E-01
   9.516  0.266E+00  0.886E-01  0.886E-01  0.886E-01
   9.526  0.266E+00  0.886E-01  0.886E-01  0.886E-01
   9.536  0.266E+00  0.887E-01  0.887E-01  0.887E-01
   9.546  0.266E+00  0.886E-01  0.886E-01  0.886E-01
   9.556  0.266E+00  0.886E-01  0.886E-01  0.886E-01
   9.566  0.265E+00  0.885E-01  0.885E-01  0.885E-01
   9.576  0.265E+00  0.883E-01  0.883E-01  0.883E-01
   9.586  0.265E+00  0.882E-01  0.882E-01  0.882E-01
   9.596  0.264E+00  0.880E-01  0.880E-01  0.880E-01
   9.606  0.264E+00  0.878E-01  0.878E-01  0.878E-01
   9.616  0.263E+00  0.876E-01  0.876E-01  0.876E-01
   9.626  0.262E+00  0.874E-01  0.874E-01  0.874E-01
   9.636  0.262E+00  0.872E-01  0.872E-01  0.872E-01
   9.646  0.261E+00  0.870E-01  0.870E-01  0.870E-01
   9.656  0.260E+00  0.867E-01  0.867E-01  0.867E-01
   9.666  0.259E+00  0.864E-01  0.864E-01  0.864E-01
   9.676  0.258E+00  0.861E-01  0.861E-01  0.861E-01
   9.686  0.257E+00  0.857E-01  0.857E-01  0.857E-01
   9.696  0.256E+00  0.852E-01  0.852E-01  0.852E-01
   9.706  0.254E+00  0.847E-01  0.847E-01  0.847E-01
   9.716  0.253E+00  0.842E-01  0.842E-01  0.842E-01
   9.726  0.251E+00  0.836E-01  0.836E-01  0.836E-01
   9.736  0.249E+00  0.830E-01  0.830E-01  0.830E-01
   9.746  0.247E+00  0.824E-01  0.824E-01  0.824E-01
   9.756  0.245E+00  0.817E-01  0.817E-01  0.817E-01
   9.766  0.243E+00  0.811E-01  0.811E-01  0.811E-01
   9.776  0.241E+00  0.805E-01  0.805E-01  0.805E-01
   9.786  0.240E+00  0.799E-01  0.799E-01  0.799E-01
   9.796  0.238E+00  0.794E-01  0.794E-01  0.794E-01
   9.806  0.237E+00  0.789E-01  0.789E-01  0.789E-01
   9.816  0.236E+00  0.785E-01  0.785E-01  0.785E-01
   9.826  0.235E+00  0.783E-01  0.783E-01  0.783E-01
   9.836  0.234E+00  0.781E-01  0.781E-01  0.781E-01
   9.846  0.234E+00  0.780E-01  0.780E-01  0.780E-01
   9.856  0.234E+00  0.780E-01  0.780E-01  0.780E-01
   9.866  0.235E+00  0.782E-01  0.782E-01  0.782E-01
   9.876  0.235E+00  0.785E-01  0.785E-01  0.785E-01
   9.886  0.237E+00  0.789E-01  0.789E-01  0.789E-01
   9.896  0.238E+00  0.794E-01  0.794E-01  0.794E-01
   9.906  0.240E+00  0.801E-01  0.801E-01  0.801E-01
   9.916  0.242E+00  0.808E-01  0.808E-01  0.808E-01
   9.926  0.245E+00  0.817E-01  0.817E-01  0.817E-01
   9.936  0.248E+00  0.827E-01  0.827E-01  0.827E-01
   9.946  0.251E+00  0.838E-01  0.838E-01  0.838E-01
   9.956  0.255E+00  0.849E-01  0.849E-01  0.849E-01
   9.966  0.258E+00  0.861E-01  0.861E-01  0.861E-01
   9.976  0.262E+00  0.874E-01  0.874E-01  0.874E-01
   9.986  0.266E+00  0.886E-01  0.886E-01  0.886E-01
   9.996  0.270E+00  0.899E-01  0.899E-01  0.899E-01
  10.006  0.273E+00  0.911E-01  0.911E-01  0.911E-01
  10.016  0.277E+00  0.923E-01  0.923E-01  0.923E-01
  10.026  0.280E+00  0.934E-01  0.934E-01  0.934E-01
  10.036  0.283E+00  0.944E-01  0.944E-01  0.944E-01
  10.046  0.286E+00  0.952E-01  0.952E-01  0.952E-01
  10.056  0.288E+00  0.960E-01  0.960E-01  0.960E-01
  10.066  0.290E+00  0.966E-01  0.966E-01  0.966E-01
  10.076  0.291E+00  0.970E-01  0.970E-01  0.970E-01
  10.086  0.292E+00  0.972E-01  0.972E-01  0.972E-01
  10.096  0.292E+00  0.973E-01  0.973E-01  0.973E-01
  10.106  0.292E+00  0.972E-01  0.972E-01  0.972E-01
  10.116  0.291E+00  0.969E-01  0.969E-01  0.969E-01
  10.126  0.289E+00  0.964E-01  0.964E-01  0.964E-01
  10.136  0.287E+00  0.958E-01  0.958E-01  0.958E-01
  10.146  0.285E+00  0.950E-01  0.950E-01  0.950E-01
  10.156  0.282E+00  0.942E-01  0.942E-01  0.942E-01
  10.166  0.279E+00  0.932E-01  0.932E-01  0.932E-01
  10.176  0.276E+00  0.921E-01  0.921E-01  0.921E-01
  10.186  0.273E+00  0.909E-01  0.909E-01  0.909E-01
  10.196  0.269E+00  0.897E-01  0.897E-01  0.897E-01
  10.206  0.266E+00  0.885E-01  0.885E-01  0.885E-01
  10.216  0.262E+00  0.874E-01  0.874E-01  0.874E-01
  10.226  0.259E+00  0.862E-01  0.862E-01  0.862E-01
  10.236  0.255E+00  0.852E-01  0.852E-01  0.852E-01
  10.246  0.253E+00  0.842E-01  0.842E-01  0.842E-01
  10.256  0.250E+00  0.833E-01  0.833E-01  0.833E-01
  10.266  0.248E+00  0.826E-01  0.826E-01  0.826E-01
  10.276  0.246E+00  0.821E-01  0.821E-01  0.821E-01
  10.286  0.245E+00  0.816E-01  0.816E-01  0.816E-01
  10.296  0.244E+00  0.814E-01  0.814E-01  0.814E-01
  10.306  0.244E+00  0.813E-01  0.813E-01  0.813E-01
  10.316  0.244E+00  0.815E-01  0.815E-01  0.815E-01
  10.326  0.245E+00  0.817E-01  0.817E-01  0.817E-01
  10.336  0.247E+00  0.822E-01  0.822E-01  0.822E-01
  10.346  0.248E+00  0.828E-01  0.828E-01  0.828E-01
  10.356  0.250E+00  0.835E-01  0.835E-01  0.835E-01
  10.366  0.253E+00  0.843E-01  0.843E-01  0.843E-01
  10.376  0.256E+00  0.852E-01  0.852E-01  0.852E-01
  10.386  0.259E+00  0.862E-01  0.862E-01  0.862E-01
  10.396  0.262E+00  0.873E-01  0.873E-01  0.873E-01
  10.406  0.265E+00  0.884E-01  0.884E-01  0.884E-01
  10.416  0.269E+00  0.895E-01  0.895E-01  0.895E-01
  10.426  0.272E+00  0.906E-01  0.906E-01  0.906E-01
  10.436  0.275E+00  0.917E-01  0.917E-01  0.917E-01
  10.446  0.278E+00  0.927E-01  0.927E-01  0.927E-01
  10.456  0.281E+00  0.937E-01  0.937E-01  0.937E-01
  10.466  0.284E+00  0.946E-01  0.946E-01  0.946E-01
  10.476  0.286E+00  0.954E-01  0.954E-01  0.954E-01
  10.486  0.288E+00  0.961E-01  0.961E-01  0.961E-01
  10.496  0.290E+00  0.967E-01  0.967E-01  0.967E-01
  10.506  0.292E+00  0.972E-01  0.972E-01  0.972E-01
  10.516  0.293E+00  0.975E-01  0.975E-01  0.975E-01
  10.526  0.293E+00  0.978E-01  0.978E-01  0.978E-01
  10.536  0.294E+00  0.979E-01  0.979E-01  0.979E-01
  10.546  0.294E+00  0.979E-01  0.979E-01  0.979E-01
  10.556  0.293E+00  0.977E-01  0.977E-01  0.977E-01
  10.566  0.292E+00  0.975E-01  0.975E-01  0.975E-01
  10.576  0.292E+00  0.972E-01  0.972E-01  0.972E-01
  10.586  0.290E+00  0.968E-01  0.968E-01  0.968E-01
  10.596  0.289E+00  0.963E-01  0.963E-01  0.963E-01
  10.606  0.287E+00  0.958E-01  0.958E-01  0.958E-01
  10.616  0.286E+00  0.953E-01  0.953E-01  0.953E-01
  10.626  0.284E+00  0.948E-01  0.948E-01  0.948E-01
  10.636  0.283E+00  0.942E-01  0.942E-01  0.942E-01
  10.646  0.281E+00  0.937E-01  0.937E-01  0.937E-01
  10.656  0.280E+00  0.933E-01  0.933E-01  0.933E-01
  10.666  0.278E+00  0.928E-01  0.928E-01  0.928E-01
  10.676  0.277E+00  0.924E-01  0.924E-01  0.924E-01
  10.686  0.276E+00  0.921E-01  0.921E-01  0.921E-01
  10.696  0.275E+00  0.918E-01  0.918E-01  0.918E-01
  10.706  0.274E+00  0.915E-01  0.915E-01  0.915E-01
  10.716  0.274E+00  0.912E-01  0.912E-01  0.912E-01
  10.726  0.273E+00  0.910E-01  0.910E-01  0.910E-01
  10.736  0.272E+00  0.908E-01  0.908E-01  0.908E-01
  10.746  0.272E+00  0.906E-01  0.906E-01  0.906E-01
  10.756  0.271E+00  0.904E-01  0.904E-01  0.904E-01
  10.766  0.271E+00  0.902E-01  0.902E-01  0.902E-01
  10.776  0.270E+00  0.900E-01  0.900E-01  0.900E-01
  10.786  0.269E+00  0.898E-01  0.898E-01  0.898E-01
  10.796  0.269E+00  0.896E-01  0.896E-01  0.896E-01
  10.806  0.268E+00  0.893E-01  0.893E-01  0.893E-01
  10.816  0.267E+00  0.891E-01  0.891E-01  0.891E-01
  10.826  0.266E+00  0.888E-01  0.888E-01  0.888E-01
  10.836  0.266E+00  0.885E-01  0.885E-01  0.885E-01
  10.846  0.265E+00  0.883E-01  0.883E-01  0.883E-01
  10.856  0.264E+00  0.880E-01  0.880E-01  0.880E-01
  10.866  0.263E+00  0.878E-01  0.878E-01  0.878E-01
  10.876  0.263E+00  0.877E-01  0.877E-01  0.877E-01
  10.886  0.263E+00  0.875E-01  0.875E-01  0.875E-01
  10.896  0.263E+00  0.875E-01  0.875E-01  0.875E-01
  10.906  0.263E+00  0.875E-01  0.875E-01  0.875E-01
  10.916  0.263E+00  0.877E-01  0.877E-01  0.877E-01
  10.926  0.264E+00  0.879E-01  0.879E-01  0.879E-01
  10.936  0.265E+00  0.882E-01  0.882E-01  0.882E-01
  10.946  0.266E+00  0.886E-01  0.886E-01  0.886E-01
  10.956  0.267E+00  0.891E-01  0.891E-01  0.891E-01
  10.966  0.269E+00  0.897E-01  0.897E-01  0.897E-01
  10.976  0.271E+00  0.904E-01  0.904E-01  0.904E-01
  10.986  0.274E+00  0.912E-01  0.912E-01  0.912E-01
  10.996  0.276E+00  0.921E-01  0.921E-01  0.921E-01
  11.006  0.279E+00  0.930E-01  0.930E-01  0.930E-01
  11.016  0.282E+00  0.939E-01  0.939E-01  0.939E-01
  11.026  0.285E+00  0.949E-01  0.949E-01  0.949E-01
  11.036  0.287E+00  0.958E-01  0.958E-01  0.958E-01
  11.046  0.290E+00  0.967E-01  0.967E-01  0.967E-01
  11.056  0.293E+00  0.975E-01  0.975E-01  0.975E-01
  11.066  0.295E+00  0.983E-01  0.983E-01  0.983E-01
  11.076  0.297E+00  0.990E-01  0.990E-01  0.990E-01
  11.086  0.299E+00  0.996E-01  0.996E-01  0.996E-01
  11.096  0.300E+00  0.100E+00  0.100E+00  0.100E+00
  11.106  0.301E+00  0.100E+00  0.100E+00  0.100E+00
  11.116  0.301E+00  0.100E+00  0.100E+00  0.100E+00
  11.126  0.301E+00  0.100E+00  0.100E+00  0.100E+00
  11.136  0.301E+00  0.100E+00  0.100E+00  0.100E+00
  11.146  0.300E+00  0.100E+00  0.100E+00  0.100E+00
  11.156  0.299E+00  0.996E-01  0.996E-01  0.996E-01
  11.166  0.297E+00  0.991E-01  0.991E-01  0.991E-01
  11.176  0.296E+00  0.985E-01  0.985E-01  0.985E-01
  11.186  0.294E+00  0.979E-01  0.979E-01  0.979E-01
  11.196  0.292E+00  0.972E-01  0.972E-01  0.972E-01
  11.206  0.290E+00  0.965E-01  0.965E-01  0.965E-01
  11.216  0.288E+00  0.959E-01  0.959E-01  0.959E-01
  11.226  0.286E+00  0.953E-01  0.953E-01  0.953E-01
  11.236  0.284E+00  0.947E-01  0.947E-01  0.947E-01
  11.246  0.283E+00  0.943E-01  0.943E-01  0.943E-01
  11.256  0.282E+00  0.939E-01  0.939E-01  0.939E-01
  11.266  0.281E+00  0.937E-01  0.937E-01  0.937E-01
  11.276  0.281E+00  0.936E-01  0.936E-01  0.936E-01
  11.286  0.281E+00  0.936E-01  0.936E-01  0.936E-01
  11.296  0.281E+00  0.937E-01  0.937E-01  0.937E-01
  11.306  0.282E+00  0.939E-01  0.939E-01  0.939E-01
  11.316  0.283E+00  0.942E-01  0.942E-01  0.942E-01
  11.326  0.284E+00  0.946E-01  0.946E-01  0.946E-01
  11.336  0.285E+00  0.951E-01  0.951E-01  0.951E-01
  11.346  0.287E+00  0.955E-01  0.955E-01  0.955E-01
  11.356  0.288E+00  0.960E-01  0.960E-01  0.960E-01
  11.366  0.289E+00  0.965E-01  0.965E-01  0.965E-01
  11.376  0.291E+00  0.969E-01  0.969E-01  0.969E-01
  11.386  0.292E+00  0.972E-01  0.972E-01  0.972E-01
  11.396  0.293E+00  0.975E-01  0.975E-01  0.975E-01
  11.406  0.293E+00  0.977E-01  0.977E-01  0.977E-01
  11.416  0.293E+00  0.978E-01  0.978E-01  0.978E-01
  11.426  0.294E+00  0.978E-01  0.978E-01  0.978E-01
  11.436  0.293E+00  0.978E-01  0.978E-01  0.978E-01
  11.446  0.293E+00  0.976E-01  0.976E-01  0.976E-01
  11.456  0.292E+00  0.975E-01  0.975E-01  0.975E-01
  11.466  0.292E+00  0.972E-01  0.972E-01  0.972E-01
  11.476  0.291E+00  0.970E-01  0.970E-01  0.970E-01
  11.486  0.290E+00  0.968E-01  0.968E-01  0.968E-01
  11.496  0.290E+00  0.966E-01  0.966E-01  0.966E-01
  11.506  0.289E+00  0.965E-01  0.965E-01  0.965E-01
  11.516  0.289E+00  0.964E-01  0.964E-01  0.964E-01
  11.526  0.289E+00  0.964E-01  0.964E-01  0.964E-01
  11.536  0.289E+00  0.964E-01  0.964E-01  0.964E-01
  11.546  0.290E+00  0.966E-01  0.966E-01  0.966E-01
  11.556  0.290E+00  0.968E-01  0.968E-01  0.968E-01
  11.566  0.291E+00  0.971E-01  0.971E-01  0.971E-01
  11.576  0.292E+00  0.974E-01  0.974E-01  0.974E-01
  11.586  0.293E+00  0.978E-01  0.978E-01  0.978E-01
  11.596  0.294E+00  0.982E-01  0.982E-01  0.982E-01
  11.606  0.296E+00  0.985E-01  0.985E-01  0.985E-01
  11.616  0.297E+00  0.989E-01  0.989E-01  0.989E-01
  11.626  0.298E+00  0.992E-01  0.992E-01  0.992E-01
  11.636  0.298E+00  0.995E-01  0.995E-01  0.995E-01
  11.646  0.299E+00  0.997E-01  0.997E-01  0.997E-01
  11.656  0.299E+00  0.998E-01  0.998E-01  0.998E-01
  11.666  0.300E+00  0.998E-01  0.998E-01  0.998E-01
  11.676  0.300E+00  0.998E-01  0.998E-01  0.998E-01
  11.686  0.299E+00  0.998E-01  0.998E-01  0.998E-01
  11.696  0.299E+00  0.997E-01  0.997E-01  0.997E-01
  11.706  0.299E+00  0.995E-01  0.995E-01  0.995E-01
  11.716  0.298E+00  0.994E-01  0.994E-01  0.994E-01
  11.726  0.298E+00  0.992E-01  0.992E-01  0.992E-01
  11.736  0.297E+00  0.991E-01  0.991E-01  0.991E-01
  11.746  0.297E+00  0.990E-01  0.990E-01  0.990E-01
  11.756  0.297E+00  0.989E-01  0.989E-01  0.989E-01
  11.766  0.297E+00  0.989E-01  0.989E-01  0.989E-01
  11.776  0.297E+00  0.989E-01  0.989E-01  0.989E-01
  11.786  0.297E+00  0.990E-01  0.990E-01  0.990E-01
  11.796  0.297E+00  0.991E-01  0.991E-01  0.991E-01
  11.806  0.298E+00  0.993E-01  0.993E-01  0.993E-01
  11.816  0.299E+00  0.995E-01  0.995E-01  0.995E-01
  11.826  0.299E+00  0.997E-01  0.997E-01  0.997E-01
  11.836  0.300E+00  0.100E+00  0.100E+00  0.100E+00
  11.846  0.301E+00  0.100E+00  0.100E+00  0.100E+00
  11.856  0.301E+00  0.100E+00  0.100E+00  0.100E+00
  11.866  0.302E+00  0.101E+00  0.101E+00  0.101E+00
  11.876  0.302E+00  0.101E+00  0.101E+00  0.101E+00
  11.886  0.302E+00  0.101E+00  0.101E+00  0.101E+00
  11.896  0.302E+00  0.101E+00  0.101E+00  0.101E+00
  11.906  0.301E+00  0.100E+00  0.100E+00  0.100E+00
  11.916  0.301E+00  0.100E+00  0.100E+00  0.100E+00
  11.926  0.300E+00  0.998E-01  0.998E-01  0.998E-01
  11.936  0.298E+00  0.994E-01  0.994E-01  0.994E-01
  11.946  0.297E+00  0.989E-01  0.989E-01  0.989E-01
  11.956  0.295E+00  0.984E-01  0.984E-01  0.984E-01
  11.966  0.294E+00  0.978E-01  0.978E-01  0.978E-01
  11.976  0.292E+00  0.973E-01  0.973E-01  0.973E-01
  11.986  0.290E+00  0.967E-01  0.967E-01  0.967E-01
  11.996  0.288E+00  0.962E-01  0.962E-01  0.962E-01
  12.006  0.287E+00  0.957E-01  0.957E-01  0.957E-01
  12.016  0.286E+00  0.953E-01  0.953E-01  0.953E-01
  12.026  0.285E+00  0.949E-01  0.949E-01  0.949E-01
  12.036  0.284E+00  0.947E-01  0.947E-01  0.947E-01
  12.046  0.284E+00  0.946E-01  0.946E-01  0.946E-01
  12.056  0.284E+00  0.946E-01  0.946E-01  0.946E-01
  12.066  0.284E+00  0.947E-01  0.947E-01  0.947E-01
  12.076  0.285E+00  0.950E-01  0.950E-01  0.950E-01
  12.086  0.286E+00  0.953E-01  0.953E-01  0.953E-01
  12.096  0.287E+00  0.957E-01  0.957E-01  0.957E-01
  12.106  0.289E+00  0.962E-01  0.962E-01  0.962E-01
  12.116  0.290E+00  0.968E-01  0.968E-01  0.968E-01
  12.126  0.292E+00  0.975E-01  0.975E-01  0.975E-01
  12.136  0.294E+00  0.981E-01  0.981E-01  0.981E-01
  12.146  0.297E+00  0.989E-01  0.989E-01  0.989E-01
  12.156  0.299E+00  0.996E-01  0.996E-01  0.996E-01
  12.166  0.301E+00  0.100E+00  0.100E+00  0.100E+00
  12.176  0.303E+00  0.101E+00  0.101E+00  0.101E+00
  12.186  0.305E+00  0.102E+00  0.102E+00  0.102E+00
  12.196  0.308E+00  0.103E+00  0.103E+00  0.103E+00
  12.206  0.310E+00  0.103E+00  0.103E+00  0.103E+00
  12.216  0.312E+00  0.104E+00  0.104E+00  0.104E+00
  12.226  0.314E+00  0.105E+00  0.105E+00  0.105E+00
  12.236  0.316E+00  0.105E+00  0.105E+00  0.105E+00
  12.246  0.319E+00  0.106E+00  0.106E+00  0.106E+00
  12.256  0.321E+00  0.107E+00  0.107E+00  0.107E+00
  12.266  0.322E+00  0.107E+00  0.107E+00  0.107E+00
  12.276  0.324E+00  0.108E+00  0.108E+00  0.108E+00
  12.286  0.326E+00  0.109E+00  0.109E+00  0.109E+00
  12.296  0.327E+00  0.109E+00  0.109E+00  0.109E+00
  12.306  0.329E+00  0.110E+00  0.110E+00  0.110E+00
  12.316  0.330E+00  0.110E+00  0.110E+00  0.110E+00
  12.326  0.330E+00  0.110E+00  0.110E+00  0.110E+00
  12.336  0.331E+00  0.110E+00  0.110E+00  0.110E+00
  12.346  0.331E+00  0.110E+00  0.110E+00  0.110E+00
  12.356  0.330E+00  0.110E+00  0.110E+00  0.110E+00
  12.366  0.330E+00  0.110E+00  0.110E+00  0.110E+00
  12.376  0.329E+00  0.110E+00  0.110E+00  0.110E+00
  12.386  0.328E+00  0.109E+00  0.109E+00  0.109E+00
  12.396  0.327E+00  0.109E+00  0.109E+00  0.109E+00
  12.406  0.325E+00  0.108E+00  0.108E+00  0.108E+00
  12.416  0.323E+00  0.108E+00  0.108E+00  0.108E+00
  12.426  0.322E+00  0.107E+00  0.107E+00  0.107E+00
  12.436  0.320E+00  0.107E+00  0.107E+00  0.107E+00
  12.446  0.318E+00  0.106E+00  0.106E+00  0.106E+00
  12.456  0.316E+00  0.105E+00  0.105E+00  0.105E+00
  12.466  0.314E+00  0.105E+00  0.105E+00  0.105E+00
  12.476  0.312E+00  0.104E+00  0.104E+00  0.104E+00
  12.486  0.310E+00  0.103E+00  0.103E+00  0.103E+00
  12.496  0.308E+00  0.103E+00  0.103E+00  0.103E+00
  12.506  0.307E+00  0.102E+00  0.102E+00  0.102E+00
  12.516  0.305E+00  0.102E+00  0.102E+00  0.102E+00
  12.526  0.304E+00  0.101E+00  0.101E+00  0.101E+00
  12.536  0.302E+00  0.101E+00  0.101E+00  0.101E+00
  12.546  0.301E+00  0.100E+00  0.100E+00  0.100E+00
  12.556  0.300E+00  0.100E+00  0.100E+00  0.100E+00
  12.566  0.300E+00  0.999E-01  0.999E-01  0.999E-01
  12.576  0.299E+00  0.997E-01  0.997E-01  0.997E-01
  12.586  0.299E+00  0.996E-01  0.996E-01  0.996E-01
  12.596  0.299E+00  0.996E-01  0.996E-01  0.996E-01
  12.606  0.299E+00  0.996E-01  0.996E-01  0.996E-01
  12.616  0.299E+00  0.998E-01  0.998E-01  0.998E-01
  12.626  0.300E+00  0.999E-01  0.999E-01  0.999E-01
  12.636  0.301E+00  0.100E+00  0.100E+00  0.100E+00
  12.646  0.302E+00  0.101E+00  0.101E+00  0.101E+00
  12.656  0.303E+00  0.101E+00  0.101E+00  0.101E+00
  12.666  0.304E+00  0.101E+00  0.101E+00  0.101E+00
  12.676  0.306E+00  0.102E+00  0.102E+00  0.102E+00
  12.686  0.308E+00  0.103E+00  0.103E+00  0.103E+00
  12.696  0.310E+00  0.103E+00  0.103E+00  0.103E+00
  12.706  0.312E+00  0.104E+00  0.104E+00  0.104E+00
  12.716  0.314E+00  0.105E+00  0.105E+00  0.105E+00
  12.726  0.317E+00  0.106E+00  0.106E+00  0.106E+00
  12.736  0.319E+00  0.106E+00  0.106E+00  0.106E+00
  12.746  0.322E+00  0.107E+00  0.107E+00  0.107E+00
  12.756  0.325E+00  0.108E+00  0.108E+00  0.108E+00
  12.766  0.327E+00  0.109E+00  0.109E+00  0.109E+00
  12.776  0.330E+00  0.110E+00  0.110E+00  0.110E+00
  12.786  0.332E+00  0.111E+00  0.111E+00  0.111E+00
  12.796  0.334E+00  0.111E+00  0.111E+00  0.111E+00
  12.806  0.336E+00  0.112E+00  0.112E+00  0.112E+00
  12.816  0.337E+00  0.112E+00  0.112E+00  0.112E+00
  12.826  0.339E+00  0.113E+00  0.113E+00  0.113E+00
  12.836  0.339E+00  0.113E+00  0.113E+00  0.113E+00
  12.846  0.339E+00  0.113E+00  0.113E+00  0.113E+00
  12.856  0.339E+00  0.113E+00  0.113E+00  0.113E+00
  12.866  0.339E+00  0.113E+00  0.113E+00  0.113E+00
  12.876  0.338E+00  0.113E+00  0.113E+00  0.113E+00
  12.886  0.337E+00  0.112E+00  0.112E+00  0.112E+00
  12.896  0.335E+00  0.112E+00  0.112E+00  0.112E+00
  12.906  0.333E+00  0.111E+00  0.111E+00  0.111E+00
  12.916  0.332E+00  0.111E+00  0.111E+00  0.111E+00
  12.926  0.330E+00  0.110E+00  0.110E+00  0.110E+00
  12.936  0.328E+00  0.109E+00  0.109E+00  0.109E+00
  12.946  0.327E+00  0.109E+00  0.109E+00  0.109E+00
  12.956  0.326E+00  0.109E+00  0.109E+00  0.109E+00
  12.966  0.325E+00  0.108E+00  0.108E+00  0.108E+00
  12.976  0.324E+00  0.108E+00  0.108E+00  0.108E+00
  12.986  0.324E+00  0.108E+00  0.108E+00  0.108E+00
  12.996  0.324E+00  0.108E+00  0.108E+00  0.108E+00
  13.006  0.324E+00  0.108E+00  0.108E+00  0.108E+00
  13.016  0.325E+00  0.108E+00  0.108E+00  0.108E+00
  13.026  0.326E+00  0.109E+00  0.109E+00  0.109E+00
  13.036  0.326E+00  0.109E+00  0.109E+00  0.109E+00
  13.046  0.328E+00  0.109E+00  0.109E+00  0.109E+00
  13.056  0.329E+00  0.110E+00  0.110E+00  0.110E+00
  13.066  0.330E+00  0.110E+00  0.110E+00  0.110E+00
  13.076  0.330E+00  0.110E+00  0.110E+00  0.110E+00
  13.086  0.331E+00  0.110E+00  0.110E+00  0.110E+00
  13.096  0.332E+00  0.111E+00  0.111E+00  0.111E+00
  13.106  0.332E+00  0.111E+00  0.111E+00  0.111E+00
  13.116  0.332E+00  0.111E+00  0.111E+00  0.111E+00
  13.126  0.332E+00  0.111E+00  0.111E+00  0.111E+00
  13.136  0.331E+00  0.110E+00  0.110E+00  0.110E+00
  13.146  0.331E+00  0.110E+00  0.110E+00  0.110E+00
  13.156  0.330E+00  0.110E+00  0.110E+00  0.110E+00
  13.166  0.329E+00  0.110E+00  0.110E+00  0.110E+00
  13.176  0.328E+00  0.109E+00  0.109E+00  0.109E+00
  13.186  0.327E+00  0.109E+00  0.109E+00  0.109E+00
  13.196  0.326E+00  0.109E+00  0.109E+00  0.109E+00
  13.206  0.325E+00  0.108E+00  0.108E+00  0.108E+00
  13.216  0.324E+00  0.108E+00  0.108E+00  0.108E+00
  13.226  0.324E+00  0.108E+00  0.108E+00  0.108E+00
  13.236  0.324E+00  0.108E+00  0.108E+00  0.108E+00
  13.246  0.324E+00  0.108E+00  0.108E+00  0.108E+00
  13.256  0.325E+00  0.108E+00  0.108E+00  0.108E+00
  13.266  0.327E+00  0.109E+00  0.109E+00  0.109E+00
  13.276  0.329E+00  0.110E+00  0.110E+00  0.110E+00
  13.286  0.331E+00  0.110E+00  0.110E+00  0.110E+00
  13.296  0.334E+00  0.111E+00  0.111E+00  0.111E+00
  13.306  0.337E+00  0.112E+00  0.112E+00  0.112E+00
  13.316  0.341E+00  0.114E+00  0.114E+00  0.114E+00
  13.326  0.345E+00  0.115E+00  0.115E+00  0.115E+00
  13.336  0.349E+00  0.116E+00  0.116E+00  0.116E+00
  13.346  0.353E+00  0.118E+00  0.118E+00  0.118E+00
  13.356  0.357E+00  0.119E+00  0.119E+00  0.119E+00
  13.366  0.361E+00  0.120E+00  0.120E+00  0.120E+00
  13.376  0.364E+00  0.121E+00  0.121E+00  0.121E+00
  13.386  0.367E+00  0.122E+00  0.122E+00  0.122E+00
  13.396  0.370E+00  0.123E+00  0.123E+00  0.123E+00
  13.406  0.372E+00  0.124E+00  0.124E+00  0.124E+00
  13.416  0.373E+00  0.124E+00  0.124E+00  0.124E+00
  13.426  0.374E+00  0.125E+00  0.125E+00  0.125E+00
  13.436  0.374E+00  0.125E+00  0.125E+00  0.125E+00
  13.446  0.374E+00  0.125E+00  0.125E+00  0.125E+00
  13.456  0.373E+00  0.124E+00  0.124E+00  0.124E+00
  13.466  0.372E+00  0.124E+00  0.124E+00  0.124E+00
  13.476  0.370E+00  0.123E+00  0.123E+00  0.123E+00
  13.486  0.368E+00  0.123E+00  0.123E+00  0.123E+00
  13.496  0.367E+00  0.122E+00  0.122E+00  0.122E+00
  13.506  0.365E+00  0.122E+00  0.122E+00  0.122E+00
  13.516  0.363E+00  0.121E+00  0.121E+00  0.121E+00
  13.526  0.362E+00  0.121E+00  0.121E+00  0.121E+00
  13.536  0.360E+00  0.120E+00  0.120E+00  0.120E+00
  13.546  0.359E+00  0.120E+00  0.120E+00  0.120E+00
  13.556  0.359E+00  0.120E+00  0.120E+00  0.120E+00
  13.566  0.358E+00  0.119E+00  0.119E+00  0.119E+00
  13.576  0.358E+00  0.119E+00  0.119E+00  0.119E+00
  13.586  0.358E+00  0.119E+00  0.119E+00  0.119E+00
  13.596  0.359E+00  0.120E+00  0.120E+00  0.120E+00
  13.606  0.359E+00  0.120E+00  0.120E+00  0.120E+00
  13.616  0.360E+00  0.120E+00  0.120E+00  0.120E+00
  13.626  0.361E+00  0.120E+00  0.120E+00  0.120E+00
  13.636  0.362E+00  0.121E+00  0.121E+00  0.121E+00
  13.646  0.363E+00  0.121E+00  0.121E+00  0.121E+00
  13.656  0.363E+00  0.121E+00  0.121E+00  0.121E+00
  13.666  0.364E+00  0.121E+00  0.121E+00  0.121E+00
  13.676  0.365E+00  0.122E+00  0.122E+00  0.122E+00
  13.686  0.365E+00  0.122E+00  0.122E+00  0.122E+00
  13.696  0.365E+00  0.122E+00  0.122E+00  0.122E+00
  13.706  0.365E+00  0.122E+00  0.122E+00  0.122E+00
  13.716  0.365E+00  0.122E+00  0.122E+00  0.122E+00
  13.726  0.365E+00  0.122E+00  0.122E+00  0.122E+00
  13.736  0.365E+00  0.122E+00  0.122E+00  0.122E+00
  13.746  0.365E+00  0.122E+00  0.122E+00  0.122E+00
  13.756  0.364E+00  0.121E+00  0.121E+00  0.121E+00
  13.766  0.364E+00  0.121E+00  0.121E+00  0.121E+00
  13.776  0.363E+00  0.121E+00  0.121E+00  0.121E+00
  13.786  0.363E+00  0.121E+00  0.121E+00  0.121E+00
  13.796  0.363E+00  0.121E+00  0.121E+00  0.121E+00
  13.806  0.362E+00  0.121E+00  0.121E+00  0.121E+00
  13.816  0.362E+00  0.121E+00  0.121E+00  0.121E+00
  13.826  0.362E+00  0.121E+00  0.121E+00  0.121E+00
  13.836  0.362E+00  0.121E+00  0.121E+00  0.121E+00
  13.846  0.361E+00  0.120E+00  0.120E+00  0.120E+00
  13.856  0.361E+00  0.120E+00  0.120E+00  0.120E+00
  13.866  0.361E+00  0.120E+00  0.120E+00  0.120E+00
  13.876  0.361E+00  0.120E+00  0.120E+00  0.120E+00
  13.886  0.361E+00  0.120E+00  0.120E+00  0.120E+00
  13.896  0.361E+00  0.120E+00  0.120E+00  0.120E+00
  13.906  0.360E+00  0.120E+00  0.120E+00  0.120E+00
  13.916  0.360E+00  0.120E+00  0.120E+00  0.120E+00
  13.926  0.359E+00  0.120E+00  0.120E+00  0.120E+00
  13.936  0.359E+00  0.120E+00  0.120E+00  0.120E+00
  13.946  0.358E+00  0.119E+00  0.119E+00  0.119E+00
  13.956  0.357E+00  0.119E+00  0.119E+00  0.119E+00
  13.966  0.356E+00  0.119E+00  0.119E+00  0.119E+00
  13.976  0.355E+00  0.118E+00  0.118E+00  0.118E+00
  13.986  0.353E+00  0.118E+00  0.118E+00  0.118E+00
  13.996  0.352E+00  0.117E+00  0.117E+00  0.117E+00
  14.006  0.351E+00  0.117E+00  0.117E+00  0.117E+00
  14.016  0.350E+00  0.117E+00  0.117E+00  0.117E+00
  14.026  0.349E+00  0.116E+00  0.116E+00  0.116E+00
  14.036  0.348E+00  0.116E+00  0.116E+00  0.116E+00
  14.046  0.347E+00  0.116E+00  0.116E+00  0.116E+00
  14.056  0.347E+00  0.116E+00  0.116E+00  0.116E+00
  14.066  0.347E+00  0.116E+00  0.116E+00  0.116E+00
  14.076  0.347E+00  0.116E+00  0.116E+00  0.116E+00
  14.086  0.348E+00  0.116E+00  0.116E+00  0.116E+00
  14.096  0.349E+00  0.116E+00  0.116E+00  0.116E+00
  14.106  0.350E+00  0.117E+00  0.117E+00  0.117E+00
  14.116  0.352E+00  0.117E+00  0.117E+00  0.117E+00
  14.126  0.353E+00  0.118E+00  0.118E+00  0.118E+00
  14.136  0.355E+00  0.118E+00  0.118E+00  0.118E+00
  14.146  0.357E+00  0.119E+00  0.119E+00  0.119E+00
  14.156  0.359E+00  0.120E+00  0.120E+00  0.120E+00
  14.166  0.361E+00  0.120E+00  0.120E+00  0.120E+00
  14.176  0.363E+00  0.121E+00  0.121E+00  0.121E+00
  14.186  0.364E+00  0.121E+00  0.121E+00  0.121E+00
  14.196  0.365E+00  0.122E+00  0.122E+00  0.122E+00
  14.206  0.366E+00  0.122E+00  0.122E+00  0.122E+00
  14.216  0.366E+00  0.122E+00  0.122E+00  0.122E+00
  14.226  0.366E+00  0.122E+00  0.122E+00  0.122E+00
  14.236  0.366E+00  0.122E+00  0.122E+00  0.122E+00
  14.246  0.365E+00  0.122E+00  0.122E+00  0.122E+00
  14.256  0.364E+00  0.121E+00  0.121E+00  0.121E+00
  14.266  0.362E+00  0.121E+00  0.121E+00  0.121E+00
  14.276  0.360E+00  0.120E+00  0.120E+00  0.120E+00
  14.286  0.358E+00  0.119E+00  0.119E+00  0.119E+00
  14.296  0.356E+00  0.119E+00  0.119E+00  0.119E+00
  14.306  0.353E+00  0.118E+00  0.118E+00  0.118E+00
  14.316  0.351E+00  0.117E+00  0.117E+00  0.117E+00
  14.326  0.348E+00  0.116E+00  0.116E+00  0.116E+00
  14.336  0.345E+00  0.115E+00  0.115E+00  0.115E+00
  14.346  0.343E+00  0.114E+00  0.114E+00  0.114E+00
  14.356  0.341E+00  0.114E+00  0.114E+00  0.114E+00
  14.366  0.338E+00  0.113E+00  0.113E+00  0.113E+00
  14.376  0.336E+00  0.112E+00  0.112E+00  0.112E+00
  14.386  0.334E+00  0.111E+00  0.111E+00  0.111E+00
  14.396  0.332E+00  0.111E+00  0.111E+00  0.111E+00
  14.406  0.330E+00  0.110E+00  0.110E+00  0.110E+00
  14.416  0.328E+00  0.109E+00  0.109E+00  0.109E+00
  14.426  0.327E+00  0.109E+00  0.109E+00  0.109E+00
  14.436  0.325E+00  0.108E+00  0.108E+00  0.108E+00
  14.446  0.324E+00  0.108E+00  0.108E+00  0.108E+00
  14.456  0.322E+00  0.107E+00  0.107E+00  0.107E+00
  14.466  0.321E+00  0.107E+00  0.107E+00  0.107E+00
  14.476  0.320E+00  0.107E+00  0.107E+00  0.107E+00
  14.486  0.320E+00  0.107E+00  0.107E+00  0.107E+00
  14.496  0.319E+00  0.106E+00  0.106E+00  0.106E+00
  14.506  0.319E+00  0.106E+00  0.106E+00  0.106E+00
  14.516  0.319E+00  0.106E+00  0.106E+00  0.106E+00
  14.526  0.319E+00  0.106E+00  0.106E+00  0.106E+00
  14.536  0.319E+00  0.106E+00  0.106E+00  0.106E+00
  14.546  0.320E+00  0.107E+00  0.107E+00  0.107E+00
  14.556  0.321E+00  0.107E+00  0.107E+00  0.107E+00
  14.566  0.322E+00  0.107E+00  0.107E+00  0.107E+00
  14.576  0.324E+00  0.108E+00  0.108E+00  0.108E+00
  14.586  0.325E+00  0.108E+00  0.108E+00  0.108E+00
  14.596  0.327E+00  0.109E+00  0.109E+00  0.109E+00
  14.606  0.328E+00  0.109E+00  0.109E+00  0.109E+00
  14.616  0.330E+00  0.110E+00  0.110E+00  0.110E+00
  14.626  0.331E+00  0.110E+00  0.110E+00  0.110E+00
  14.636  0.333E+00  0.111E+00  0.111E+00  0.111E+00
  14.646  0.334E+00  0.111E+00  0.111E+00  0.111E+00
  14.656  0.335E+00  0.112E+00  0.112E+00  0.112E+00
  14.666  0.335E+00  0.112E+00  0.112E+00  0.112E+00
  14.676  0.336E+00  0.112E+00  0.112E+00  0.112E+00
  14.686  0.335E+00  0.112E+00  0.112E+00  0.112E+00
  14.696  0.335E+00  0.112E+00  0.112E+00  0.112E+00
  14.706  0.334E+00  0.111E+00  0.111E+00  0.111E+00
  14.716  0.333E+00  0.111E+00  0.111E+00  0.111E+00
  14.726  0.331E+00  0.110E+00  0.110E+00  0.110E+00
  14.736  0.329E+00  0.110E+00  0.110E+00  0.110E+00
  14.746  0.327E+00  0.109E+00  0.109E+00  0.109E+00
  14.756  0.325E+00  0.108E+00  0.108E+00  0.108E+00
  14.766  0.322E+00  0.107E+00  0.107E+00  0.107E+00
  14.776  0.320E+00  0.107E+00  0.107E+00  0.107E+00
  14.786  0.317E+00  0.106E+00  0.106E+00  0.106E+00
  14.796  0.315E+00  0.105E+00  0.105E+00  0.105E+00
  14.806  0.313E+00  0.104E+00  0.104E+00  0.104E+00
  14.816  0.311E+00  0.104E+00  0.104E+00  0.104E+00
  14.826  0.309E+00  0.103E+00  0.103E+00  0.103E+00
  14.836  0.307E+00  0.102E+00  0.102E+00  0.102E+00
  14.846  0.306E+00  0.102E+00  0.102E+00  0.102E+00
  14.856  0.305E+00  0.102E+00  0.102E+00  0.102E+00
  14.866  0.304E+00  0.101E+00  0.101E+00  0.101E+00
  14.876  0.304E+00  0.101E+00  0.101E+00  0.101E+00
  14.886  0.304E+00  0.101E+00  0.101E+00  0.101E+00
  14.896  0.305E+00  0.102E+00  0.102E+00  0.102E+00
  14.906  0.305E+00  0.102E+00  0.102E+00  0.102E+00
  14.916  0.306E+00  0.102E+00  0.102E+00  0.102E+00
  14.926  0.307E+00  0.102E+00  0.102E+00  0.102E+00
  14.936  0.308E+00  0.103E+00  0.103E+00  0.103E+00
  14.946  0.308E+00  0.103E+00  0.103E+00  0.103E+00
  14.956  0.309E+00  0.103E+00  0.103E+00  0.103E+00
  14.966  0.310E+00  0.103E+00  0.103E+00  0.103E+00
  14.976  0.311E+00  0.104E+00  0.104E+00  0.104E+00
  14.986  0.311E+00  0.104E+00  0.104E+00  0.104E+00
  14.996  0.311E+00  0.104E+00  0.104E+00  0.104E+00
  15.006  0.311E+00  0.104E+00  0.104E+00  0.104E+00
  15.016  0.311E+00  0.104E+00  0.104E+00  0.104E+00
  15.026  0.311E+00  0.104E+00  0.104E+00  0.104E+00
  15.036  0.310E+00  0.103E+00  0.103E+00  0.103E+00
  15.046  0.309E+00  0.103E+00  0.103E+00  0.103E+00
  15.056  0.308E+00  0.103E+00  0.103E+00  0.103E+00
  15.066  0.306E+00  0.102E+00  0.102E+00  0.102E+00
  15.076  0.305E+00  0.102E+00  0.102E+00  0.102E+00
  15.086  0.303E+00  0.101E+00  0.101E+00  0.101E+00
  15.096  0.301E+00  0.100E+00  0.100E+00  0.100E+00
  15.106  0.299E+00  0.998E-01  0.998E-01  0.998E-01
  15.116  0.298E+00  0.992E-01  0.992E-01  0.992E-01
  15.126  0.296E+00  0.986E-01  0.986E-01  0.986E-01
  15.136  0.294E+00  0.980E-01  0.980E-01  0.980E-01
  15.146  0.292E+00  0.974E-01  0.974E-01  0.974E-01
  15.156  0.290E+00  0.968E-01  0.968E-01  0.968E-01
  15.166  0.289E+00  0.962E-01  0.962E-01  0.962E-01
  15.176  0.287E+00  0.957E-01  0.957E-01  0.957E-01
  15.186  0.286E+00  0.952E-01  0.952E-01  0.952E-01
  15.196  0.284E+00  0.948E-01  0.948E-01  0.948E-01
  15.206  0.283E+00  0.943E-01  0.943E-01  0.943E-01
  15.216  0.282E+00  0.939E-01  0.939E-01  0.939E-01
  15.226  0.281E+00  0.936E-01  0.936E-01  0.936E-01
  15.236  0.280E+00  0.932E-01  0.932E-01  0.932E-01
  15.246  0.279E+00  0.929E-01  0.929E-01  0.929E-01
  15.256  0.278E+00  0.925E-01  0.925E-01  0.925E-01
  15.266  0.277E+00  0.922E-01  0.922E-01  0.922E-01
  15.276  0.276E+00  0.919E-01  0.919E-01  0.919E-01
  15.286  0.275E+00  0.917E-01  0.917E-01  0.917E-01
  15.296  0.274E+00  0.914E-01  0.914E-01  0.914E-01
  15.306  0.274E+00  0.912E-01  0.912E-01  0.912E-01
  15.316  0.273E+00  0.910E-01  0.910E-01  0.910E-01
  15.326  0.273E+00  0.909E-01  0.909E-01  0.909E-01
  15.336  0.273E+00  0.909E-01  0.909E-01  0.909E-01
  15.346  0.273E+00  0.908E-01  0.908E-01  0.908E-01
  15.356  0.273E+00  0.909E-01  0.909E-01  0.909E-01
  15.366  0.273E+00  0.910E-01  0.910E-01  0.910E-01
  15.376  0.274E+00  0.912E-01  0.912E-01  0.912E-01
  15.386  0.274E+00  0.914E-01  0.914E-01  0.914E-01
  15.396  0.275E+00  0.917E-01  0.917E-01  0.917E-01
  15.406  0.276E+00  0.921E-01  0.921E-01  0.921E-01
  15.416  0.278E+00  0.925E-01  0.925E-01  0.925E-01
  15.426  0.279E+00  0.929E-01  0.929E-01  0.929E-01
  15.436  0.280E+00  0.934E-01  0.934E-01  0.934E-01
  15.446  0.281E+00  0.938E-01  0.938E-01  0.938E-01
  15.456  0.283E+00  0.942E-01  0.942E-01  0.942E-01
  15.466  0.284E+00  0.946E-01  0.946E-01  0.946E-01
  15.476  0.285E+00  0.949E-01  0.949E-01  0.949E-01
  15.486  0.286E+00  0.952E-01  0.952E-01  0.952E-01
  15.496  0.286E+00  0.953E-01  0.953E-01  0.953E-01
  15.506  0.286E+00  0.954E-01  0.954E-01  0.954E-01
  15.516  0.286E+00  0.954E-01  0.954E-01  0.954E-01
  15.526  0.286E+00  0.953E-01  0.953E-01  0.953E-01
  15.536  0.285E+00  0.950E-01  0.950E-01  0.950E-01
  15.546  0.284E+00  0.947E-01  0.947E-01  0.947E-01
  15.556  0.283E+00  0.943E-01  0.943E-01  0.943E-01
  15.566  0.281E+00  0.937E-01  0.937E-01  0.937E-01
  15.576  0.279E+00  0.931E-01  0.931E-01  0.931E-01
  15.586  0.277E+00  0.924E-01  0.924E-01  0.924E-01
  15.596  0.275E+00  0.917E-01  0.917E-01  0.917E-01
  15.606  0.273E+00  0.909E-01  0.909E-01  0.909E-01
  15.616  0.270E+00  0.901E-01  0.901E-01  0.901E-01
  15.626  0.268E+00  0.892E-01  0.892E-01  0.892E-01
  15.636  0.265E+00  0.884E-01  0.884E-01  0.884E-01
  15.646  0.263E+00  0.876E-01  0.876E-01  0.876E-01
  15.656  0.260E+00  0.868E-01  0.868E-01  0.868E-01
  15.666  0.258E+00  0.860E-01  0.860E-01  0.860E-01
  15.676  0.256E+00  0.853E-01  0.853E-01  0.853E-01
  15.686  0.254E+00  0.846E-01  0.846E-01  0.846E-01
  15.696  0.252E+00  0.840E-01  0.840E-01  0.840E-01
  15.706  0.250E+00  0.835E-01  0.835E-01  0.835E-01
  15.716  0.249E+00  0.830E-01  0.830E-01  0.830E-01
  15.726  0.248E+00  0.826E-01  0.826E-01  0.826E-01
  15.736  0.247E+00  0.823E-01  0.823E-01  0.823E-01
  15.746  0.246E+00  0.821E-01  0.821E-01  0.821E-01
  15.756  0.246E+00  0.820E-01  0.820E-01  0.820E-01
  15.766  0.246E+00  0.819E-01  0.819E-01  0.819E-01
  15.776  0.246E+00  0.820E-01  0.820E-01  0.820E-01
  15.786  0.246E+00  0.821E-01  0.821E-01  0.821E-01
  15.796  0.247E+00  0.823E-01  0.823E-01  0.823E-01
  15.806  0.247E+00  0.825E-01  0.825E-01  0.825E-01
  15.816  0.248E+00  0.828E-01  0.828E-01  0.828E-01
  15.826  0.249E+00  0.831E-01  0.831E-01  0.831E-01
  15.836  0.250E+00  0.834E-01  0.834E-01  0.834E-01
  15.846  0.251E+00  0.837E-01  0.837E-01  0.837E-01
  15.856  0.252E+00  0.840E-01  0.840E-01  0.840E-01
  15.866  0.253E+00  0.843E-01  0.843E-01  0.843E-01
  15.876  0.254E+00  0.845E-01  0.845E-01  0.845E-01
  15.886  0.254E+00  0.847E-01  0.847E-01  0.847E-01
  15.896  0.255E+00  0.849E-01  0.849E-01  0.849E-01
  15.906  0.255E+00  0.849E-01  0.849E-01  0.849E-01
  15.916  0.255E+00  0.849E-01  0.849E-01  0.849E-01
  15.926  0.254E+00  0.848E-01  0.848E-01  0.848E-01
  15.936  0.254E+00  0.847E-01  0.847E-01  0.847E-01
  15.946  0.253E+00  0.844E-01  0.844E-01  0.844E-01
  15.956  0.252E+00  0.841E-01  0.841E-01  0.841E-01
  15.966  0.251E+00  0.838E-01  0.838E-01  0.838E-01
  15.976  0.250E+00  0.834E-01  0.834E-01  0.834E-01
  15.986  0.249E+00  0.829E-01  0.829E-01  0.829E-01
  15.996  0.247E+00  0.825E-01  0.825E-01  0.825E-01
  16.006  0.246E+00  0.820E-01  0.820E-01  0.820E-01
  16.016  0.244E+00  0.815E-01  0.815E-01  0.815E-01
  16.026  0.243E+00  0.810E-01  0.810E-01  0.810E-01
  16.036  0.242E+00  0.805E-01  0.805E-01  0.805E-01
  16.046  0.240E+00  0.801E-01  0.801E-01  0.801E-01
  16.056  0.239E+00  0.797E-01  0.797E-01  0.797E-01
  16.066  0.238E+00  0.793E-01  0.793E-01  0.793E-01
  16.076  0.237E+00  0.789E-01  0.789E-01  0.789E-01
  16.086  0.235E+00  0.785E-01  0.785E-01  0.785E-01
  16.096  0.234E+00  0.781E-01  0.781E-01  0.781E-01
  16.106  0.233E+00  0.777E-01  0.777E-01  0.777E-01
  16.116  0.232E+00  0.774E-01  0.774E-01  0.774E-01
  16.126  0.231E+00  0.770E-01  0.770E-01  0.770E-01
  16.136  0.230E+00  0.767E-01  0.767E-01  0.767E-01
  16.146  0.229E+00  0.764E-01  0.764E-01  0.764E-01
  16.156  0.228E+00  0.761E-01  0.761E-01  0.761E-01
  16.166  0.228E+00  0.758E-01  0.758E-01  0.758E-01
  16.176  0.227E+00  0.756E-01  0.756E-01  0.756E-01
  16.186  0.226E+00  0.755E-01  0.755E-01  0.755E-01
  16.196  0.226E+00  0.754E-01  0.754E-01  0.754E-01
  16.206  0.226E+00  0.753E-01  0.753E-01  0.753E-01
  16.216  0.226E+00  0.754E-01  0.754E-01  0.754E-01
  16.226  0.226E+00  0.755E-01  0.755E-01  0.755E-01
  16.236  0.227E+00  0.756E-01  0.756E-01  0.756E-01
  16.246  0.228E+00  0.759E-01  0.759E-01  0.759E-01
  16.256  0.229E+00  0.762E-01  0.762E-01  0.762E-01
  16.266  0.230E+00  0.766E-01  0.766E-01  0.766E-01
  16.276  0.231E+00  0.769E-01  0.769E-01  0.769E-01
  16.286  0.232E+00  0.773E-01  0.773E-01  0.773E-01
  16.296  0.233E+00  0.777E-01  0.777E-01  0.777E-01
  16.306  0.234E+00  0.781E-01  0.781E-01  0.781E-01
  16.316  0.235E+00  0.784E-01  0.784E-01  0.784E-01
  16.326  0.236E+00  0.787E-01  0.787E-01  0.787E-01
  16.336  0.237E+00  0.788E-01  0.788E-01  0.788E-01
  16.346  0.237E+00  0.789E-01  0.789E-01  0.789E-01
  16.356  0.237E+00  0.788E-01  0.788E-01  0.788E-01
  16.366  0.236E+00  0.787E-01  0.787E-01  0.787E-01
  16.376  0.235E+00  0.784E-01  0.784E-01  0.784E-01
  16.386  0.234E+00  0.780E-01  0.780E-01  0.780E-01
  16.396  0.232E+00  0.775E-01  0.775E-01  0.775E-01
  16.406  0.231E+00  0.769E-01  0.769E-01  0.769E-01
  16.416  0.228E+00  0.762E-01  0.762E-01  0.762E-01
  16.426  0.226E+00  0.754E-01  0.754E-01  0.754E-01
  16.436  0.224E+00  0.746E-01  0.746E-01  0.746E-01
  16.446  0.221E+00  0.737E-01  0.737E-01  0.737E-01
  16.456  0.219E+00  0.729E-01  0.729E-01  0.729E-01
  16.466  0.216E+00  0.720E-01  0.720E-01  0.720E-01
  16.476  0.213E+00  0.711E-01  0.711E-01  0.711E-01
  16.486  0.211E+00  0.703E-01  0.703E-01  0.703E-01
  16.496  0.209E+00  0.695E-01  0.695E-01  0.695E-01
  16.506  0.206E+00  0.688E-01  0.688E-01  0.688E-01
  16.516  0.204E+00  0.681E-01  0.681E-01  0.681E-01
  16.526  0.202E+00  0.674E-01  0.674E-01  0.674E-01
  16.536  0.201E+00  0.668E-01  0.668E-01  0.668E-01
  16.546  0.199E+00  0.663E-01  0.663E-01  0.663E-01
  16.556  0.198E+00  0.659E-01  0.659E-01  0.659E-01
  16.566  0.196E+00  0.655E-01  0.655E-01  0.655E-01
  16.576  0.195E+00  0.652E-01  0.652E-01  0.652E-01
  16.586  0.195E+00  0.649E-01  0.649E-01  0.649E-01
  16.596  0.194E+00  0.647E-01  0.647E-01  0.647E-01
  16.606  0.194E+00  0.646E-01  0.646E-01  0.646E-01
  16.616  0.194E+00  0.645E-01  0.645E-01  0.645E-01
  16.626  0.194E+00  0.646E-01  0.646E-01  0.646E-01
  16.636  0.194E+00  0.647E-01  0.647E-01  0.647E-01
  16.646  0.195E+00  0.649E-01  0.649E-01  0.649E-01
  16.656  0.196E+00  0.652E-01  0.652E-01  0.652E-01
  16.666  0.197E+00  0.656E-01  0.656E-01  0.656E-01
  16.676  0.198E+00  0.660E-01  0.660E-01  0.660E-01
  16.686  0.200E+00  0.665E-01  0.665E-01  0.665E-01
  16.696  0.201E+00  0.671E-01  0.671E-01  0.671E-01
  16.706  0.203E+00  0.677E-01  0.677E-01  0.677E-01
  16.716  0.205E+00  0.684E-01  0.684E-01  0.684E-01
  16.726  0.207E+00  0.691E-01  0.691E-01  0.691E-01
  16.736  0.209E+00  0.697E-01  0.697E-01  0.697E-01
  16.746  0.211E+00  0.704E-01  0.704E-01  0.704E-01
  16.756  0.213E+00  0.710E-01  0.710E-01  0.710E-01
  16.766  0.215E+00  0.716E-01  0.716E-01  0.716E-01
  16.776  0.216E+00  0.721E-01  0.721E-01  0.721E-01
  16.786  0.217E+00  0.725E-01  0.725E-01  0.725E-01
  16.796  0.218E+00  0.728E-01  0.728E-01  0.728E-01
  16.806  0.219E+00  0.730E-01  0.730E-01  0.730E-01
  16.816  0.219E+00  0.731E-01  0.731E-01  0.731E-01
  16.826  0.219E+00  0.731E-01  0.731E-01  0.731E-01
  16.836  0.219E+00  0.729E-01  0.729E-01  0.729E-01
  16.846  0.218E+00  0.726E-01  0.726E-01  0.726E-01
  16.856  0.217E+00  0.723E-01  0.723E-01  0.723E-01
  16.866  0.215E+00  0.718E-01  0.718E-01  0.718E-01
  16.876  0.214E+00  0.712E-01  0.712E-01  0.712E-01
  16.886  0.212E+00  0.705E-01  0.705E-01  0.705E-01
  16.896  0.209E+00  0.698E-01  0.698E-01  0.698E-01
  16.906  0.207E+00  0.690E-01  0.690E-01  0.690E-01
  16.916  0.204E+00  0.681E-01  0.681E-01  0.681E-01
  16.926  0.202E+00  0.672E-01  0.672E-01  0.672E-01
  16.936  0.199E+00  0.663E-01  0.663E-01  0.663E-01
  16.946  0.196E+00  0.654E-01  0.654E-01  0.654E-01
  16.956  0.193E+00  0.645E-01  0.645E-01  0.645E-01
  16.966  0.191E+00  0.636E-01  0.636E-01  0.636E-01
  16.976  0.188E+00  0.627E-01  0.627E-01  0.627E-01
  16.986  0.186E+00  0.619E-01  0.619E-01  0.619E-01
  16.996  0.183E+00  0.611E-01  0.611E-01  0.611E-01
  17.006  0.181E+00  0.604E-01  0.604E-01  0.604E-01
  17.016  0.179E+00  0.598E-01  0.598E-01  0.598E-01
  17.026  0.178E+00  0.592E-01  0.592E-01  0.592E-01
  17.036  0.176E+00  0.588E-01  0.588E-01  0.588E-01
  17.046  0.175E+00  0.584E-01  0.584E-01  0.584E-01
  17.056  0.175E+00  0.582E-01  0.582E-01  0.582E-01
  17.066  0.174E+00  0.581E-01  0.581E-01  0.581E-01
  17.076  0.174E+00  0.580E-01  0.580E-01  0.580E-01
  17.086  0.174E+00  0.581E-01  0.581E-01  0.581E-01
  17.096  0.175E+00  0.583E-01  0.583E-01  0.583E-01
  17.106  0.176E+00  0.585E-01  0.585E-01  0.585E-01
  17.116  0.177E+00  0.589E-01  0.589E-01  0.589E-01
  17.126  0.178E+00  0.593E-01  0.593E-01  0.593E-01
  17.136  0.179E+00  0.597E-01  0.597E-01  0.597E-01
  17.146  0.181E+00  0.602E-01  0.602E-01  0.602E-01
  17.156  0.182E+00  0.607E-01  0.607E-01  0.607E-01
  17.166  0.184E+00  0.612E-01  0.612E-01  0.612E-01
  17.176  0.185E+00  0.617E-01  0.617E-01  0.617E-01
  17.186  0.186E+00  0.621E-01  0.621E-01  0.621E-01
  17.196  0.188E+00  0.626E-01  0.626E-01  0.626E-01
  17.206  0.189E+00  0.629E-01  0.629E-01  0.629E-01
  17.216  0.190E+00  0.632E-01  0.632E-01  0.632E-01
  17.226  0.190E+00  0.634E-01  0.634E-01  0.634E-01
  17.236  0.191E+00  0.636E-01  0.636E-01  0.636E-01
  17.246  0.191E+00  0.636E-01  0.636E-01  0.636E-01
  17.256  0.191E+00  0.636E-01  0.636E-01  0.636E-01
  17.266  0.190E+00  0.635E-01  0.635E-01  0.635E-01
  17.276  0.190E+00  0.633E-01  0.633E-01  0.633E-01
  17.286  0.189E+00  0.630E-01  0.630E-01  0.630E-01
  17.296  0.188E+00  0.627E-01  0.627E-01  0.627E-01
  17.306  0.187E+00  0.623E-01  0.623E-01  0.623E-01
  17.316  0.186E+00  0.619E-01  0.619E-01  0.619E-01
  17.326  0.184E+00  0.615E-01  0.615E-01  0.615E-01
  17.336  0.183E+00  0.610E-01  0.610E-01  0.610E-01
  17.346  0.182E+00  0.605E-01  0.605E-01  0.605E-01
  17.356  0.180E+00  0.601E-01  0.601E-01  0.601E-01
  17.366  0.179E+00  0.596E-01  0.596E-01  0.596E-01
  17.376  0.178E+00  0.592E-01  0.592E-01  0.592E-01
  17.386  0.176E+00  0.588E-01  0.588E-01  0.588E-01
  17.396  0.175E+00  0.584E-01  0.584E-01  0.584E-01
  17.406  0.174E+00  0.580E-01  0.580E-01  0.580E-01
  17.416  0.173E+00  0.577E-01  0.577E-01  0.577E-01
  17.426  0.172E+00  0.574E-01  0.574E-01  0.574E-01
  17.436  0.171E+00  0.571E-01  0.571E-01  0.571E-01
  17.446  0.171E+00  0.569E-01  0.569E-01  0.569E-01
  17.456  0.170E+00  0.566E-01  0.566E-01  0.566E-01
  17.466  0.169E+00  0.564E-01  0.564E-01  0.564E-01
  17.476  0.169E+00  0.562E-01  0.562E-01  0.562E-01
  17.486  0.168E+00  0.560E-01  0.560E-01  0.560E-01
  17.496  0.168E+00  0.558E-01  0.558E-01  0.558E-01
  17.506  0.167E+00  0.557E-01  0.557E-01  0.557E-01
  17.516  0.167E+00  0.556E-01  0.556E-01  0.556E-01
  17.526  0.166E+00  0.554E-01  0.554E-01  0.554E-01
  17.536  0.166E+00  0.553E-01  0.553E-01  0.553E-01
  17.546  0.166E+00  0.552E-01  0.552E-01  0.552E-01
  17.556  0.165E+00  0.552E-01  0.552E-01  0.552E-01
  17.566  0.165E+00  0.551E-01  0.551E-01  0.551E-01
  17.576  0.165E+00  0.551E-01  0.551E-01  0.551E-01
  17.586  0.165E+00  0.551E-01  0.551E-01  0.551E-01
  17.596  0.165E+00  0.550E-01  0.550E-01  0.550E-01
  17.606  0.165E+00  0.550E-01  0.550E-01  0.550E-01
  17.616  0.165E+00  0.551E-01  0.551E-01  0.551E-01
  17.626  0.165E+00  0.551E-01  0.551E-01  0.551E-01
  17.636  0.165E+00  0.551E-01  0.551E-01  0.551E-01
  17.646  0.165E+00  0.551E-01  0.551E-01  0.551E-01
  17.656  0.165E+00  0.551E-01  0.551E-01  0.551E-01
  17.666  0.165E+00  0.550E-01  0.550E-01  0.550E-01
  17.676  0.165E+00  0.550E-01  0.550E-01  0.550E-01
  17.686  0.165E+00  0.550E-01  0.550E-01  0.550E-01
  17.696  0.165E+00  0.549E-01  0.549E-01  0.549E-01
  17.706  0.165E+00  0.548E-01  0.548E-01  0.548E-01
  17.716  0.164E+00  0.548E-01  0.548E-01  0.548E-01
  17.726  0.164E+00  0.547E-01  0.547E-01  0.547E-01
  17.736  0.164E+00  0.546E-01  0.546E-01  0.546E-01
  17.746  0.163E+00  0.545E-01  0.545E-01  0.545E-01
  17.756  0.163E+00  0.544E-01  0.544E-01  0.544E-01
  17.766  0.163E+00  0.543E-01  0.543E-01  0.543E-01
  17.776  0.163E+00  0.542E-01  0.542E-01  0.542E-01
  17.786  0.162E+00  0.541E-01  0.541E-01  0.541E-01
  17.796  0.162E+00  0.540E-01  0.540E-01  0.540E-01
  17.806  0.162E+00  0.539E-01  0.539E-01  0.539E-01
  17.816  0.162E+00  0.538E-01  0.538E-01  0.538E-01
  17.826  0.161E+00  0.538E-01  0.538E-01  0.538E-01
  17.836  0.161E+00  0.537E-01  0.537E-01  0.537E-01
  17.846  0.161E+00  0.536E-01  0.536E-01  0.536E-01
  17.856  0.161E+00  0.536E-01  0.536E-01  0.536E-01
  17.866  0.161E+00  0.535E-01  0.535E-01  0.535E-01
  17.876  0.160E+00  0.534E-01  0.534E-01  0.534E-01
  17.886  0.160E+00  0.534E-01  0.534E-01  0.534E-01
  17.896  0.160E+00  0.533E-01  0.533E-01  0.533E-01
  17.906  0.160E+00  0.532E-01  0.532E-01  0.532E-01
  17.916  0.159E+00  0.531E-01  0.531E-01  0.531E-01
  17.926  0.159E+00  0.530E-01  0.530E-01  0.530E-01
  17.936  0.158E+00  0.528E-01  0.528E-01  0.528E-01
  17.946  0.158E+00  0.526E-01  0.526E-01  0.526E-01
  17.956  0.157E+00  0.524E-01  0.524E-01  0.524E-01
  17.966  0.156E+00  0.522E-01  0.522E-01  0.522E-01
  17.976  0.156E+00  0.519E-01  0.519E-01  0.519E-01
  17.986  0.155E+00  0.516E-01  0.516E-01  0.516E-01
  17.996  0.154E+00  0.512E-01  0.512E-01  0.512E-01
  18.006  0.153E+00  0.509E-01  0.509E-01  0.509E-01
  18.016  0.151E+00  0.505E-01  0.505E-01  0.505E-01
  18.026  0.150E+00  0.501E-01  0.501E-01  0.501E-01
  18.036  0.149E+00  0.497E-01  0.497E-01  0.497E-01
  18.046  0.148E+00  0.493E-01  0.493E-01  0.493E-01
  18.056  0.147E+00  0.489E-01  0.489E-01  0.489E-01
  18.066  0.146E+00  0.486E-01  0.486E-01  0.486E-01
  18.076  0.145E+00  0.483E-01  0.483E-01  0.483E-01
  18.086  0.144E+00  0.481E-01  0.481E-01  0.481E-01
  18.096  0.144E+00  0.479E-01  0.479E-01  0.479E-01
  18.106  0.143E+00  0.478E-01  0.478E-01  0.478E-01
  18.116  0.143E+00  0.478E-01  0.478E-01  0.478E-01
  18.126  0.144E+00  0.479E-01  0.479E-01  0.479E-01
  18.136  0.144E+00  0.480E-01  0.480E-01  0.480E-01
  18.146  0.145E+00  0.482E-01  0.482E-01  0.482E-01
  18.156  0.145E+00  0.485E-01  0.485E-01  0.485E-01
  18.166  0.146E+00  0.488E-01  0.488E-01  0.488E-01
  18.176  0.147E+00  0.492E-01  0.492E-01  0.492E-01
  18.186  0.149E+00  0.496E-01  0.496E-01  0.496E-01
  18.196  0.150E+00  0.500E-01  0.500E-01  0.500E-01
  18.206  0.151E+00  0.505E-01  0.505E-01  0.505E-01
  18.216  0.153E+00  0.509E-01  0.509E-01  0.509E-01
  18.226  0.154E+00  0.513E-01  0.513E-01  0.513E-01
  18.236  0.155E+00  0.517E-01  0.517E-01  0.517E-01
  18.246  0.156E+00  0.521E-01  0.521E-01  0.521E-01
  18.256  0.157E+00  0.524E-01  0.524E-01  0.524E-01
  18.266  0.158E+00  0.527E-01  0.527E-01  0.527E-01
  18.276  0.159E+00  0.529E-01  0.529E-01  0.529E-01
  18.286  0.159E+00  0.530E-01  0.530E-01  0.530E-01
  18.296  0.159E+00  0.530E-01  0.530E-01  0.530E-01
  18.306  0.159E+00  0.530E-01  0.530E-01  0.530E-01
  18.316  0.159E+00  0.530E-01  0.530E-01  0.530E-01
  18.326  0.158E+00  0.528E-01  0.528E-01  0.528E-01
  18.336  0.158E+00  0.526E-01  0.526E-01  0.526E-01
  18.346  0.157E+00  0.523E-01  0.523E-01  0.523E-01
  18.356  0.156E+00  0.520E-01  0.520E-01  0.520E-01
  18.366  0.155E+00  0.517E-01  0.517E-01  0.517E-01
  18.376  0.154E+00  0.513E-01  0.513E-01  0.513E-01
  18.386  0.153E+00  0.509E-01  0.509E-01  0.509E-01
  18.396  0.151E+00  0.505E-01  0.505E-01  0.505E-01
  18.406  0.150E+00  0.500E-01  0.500E-01  0.500E-01
  18.416  0.149E+00  0.496E-01  0.496E-01  0.496E-01
  18.426  0.147E+00  0.491E-01  0.491E-01  0.491E-01
  18.436  0.146E+00  0.487E-01  0.487E-01  0.487E-01
  18.446  0.145E+00  0.483E-01  0.483E-01  0.483E-01
  18.456  0.144E+00  0.479E-01  0.479E-01  0.479E-01
  18.466  0.143E+00  0.476E-01  0.476E-01  0.476E-01
  18.476  0.142E+00  0.472E-01  0.472E-01  0.472E-01
  18.486  0.141E+00  0.469E-01  0.469E-01  0.469E-01
  18.496  0.140E+00  0.466E-01  0.466E-01  0.466E-01
  18.506  0.139E+00  0.464E-01  0.464E-01  0.464E-01
  18.516  0.138E+00  0.461E-01  0.461E-01  0.461E-01
  18.526  0.138E+00  0.459E-01  0.459E-01  0.459E-01
  18.536  0.137E+00  0.457E-01  0.457E-01  0.457E-01
  18.546  0.136E+00  0.455E-01  0.455E-01  0.455E-01
  18.556  0.136E+00  0.453E-01  0.453E-01  0.453E-01
  18.566  0.136E+00  0.452E-01  0.452E-01  0.452E-01
  18.576  0.135E+00  0.451E-01  0.451E-01  0.451E-01
  18.586  0.135E+00  0.450E-01  0.450E-01  0.450E-01
  18.596  0.135E+00  0.449E-01  0.449E-01  0.449E-01
  18.606  0.135E+00  0.449E-01  0.449E-01  0.449E-01
  18.616  0.135E+00  0.449E-01  0.449E-01  0.449E-01
  18.626  0.135E+00  0.450E-01  0.450E-01  0.450E-01
  18.636  0.136E+00  0.452E-01  0.452E-01  0.452E-01
  18.646  0.136E+00  0.454E-01  0.454E-01  0.454E-01
  18.656  0.137E+00  0.456E-01  0.456E-01  0.456E-01
  18.666  0.138E+00  0.459E-01  0.459E-01  0.459E-01
  18.676  0.139E+00  0.463E-01  0.463E-01  0.463E-01
  18.686  0.140E+00  0.467E-01  0.467E-01  0.467E-01
  18.696  0.141E+00  0.471E-01  0.471E-01  0.471E-01
  18.706  0.143E+00  0.476E-01  0.476E-01  0.476E-01
  18.716  0.144E+00  0.480E-01  0.480E-01  0.480E-01
  18.726  0.145E+00  0.485E-01  0.485E-01  0.485E-01
  18.736  0.147E+00  0.489E-01  0.489E-01  0.489E-01
  18.746  0.148E+00  0.494E-01  0.494E-01  0.494E-01
  18.756  0.149E+00  0.498E-01  0.498E-01  0.498E-01
  18.766  0.150E+00  0.501E-01  0.501E-01  0.501E-01
  18.776  0.151E+00  0.504E-01  0.504E-01  0.504E-01
  18.786  0.152E+00  0.507E-01  0.507E-01  0.507E-01
  18.796  0.153E+00  0.509E-01  0.509E-01  0.509E-01
  18.806  0.153E+00  0.510E-01  0.510E-01  0.510E-01
  18.816  0.153E+00  0.512E-01  0.512E-01  0.512E-01
  18.826  0.154E+00  0.512E-01  0.512E-01  0.512E-01
  18.836  0.154E+00  0.513E-01  0.513E-01  0.513E-01
  18.846  0.154E+00  0.513E-01  0.513E-01  0.513E-01
  18.856  0.154E+00  0.513E-01  0.513E-01  0.513E-01
  18.866  0.154E+00  0.513E-01  0.513E-01  0.513E-01
  18.876  0.154E+00  0.513E-01  0.513E-01  0.513E-01
  18.886  0.154E+00  0.512E-01  0.512E-01  0.512E-01
  18.896  0.154E+00  0.513E-01  0.513E-01  0.513E-01
  18.906  0.154E+00  0.513E-01  0.513E-01  0.513E-01
  18.916  0.154E+00  0.513E-01  0.513E-01  0.513E-01
  18.926  0.154E+00  0.514E-01  0.514E-01  0.514E-01
  18.936  0.154E+00  0.515E-01  0.515E-01  0.515E-01
  18.946  0.155E+00  0.516E-01  0.516E-01  0.516E-01
  18.956  0.155E+00  0.517E-01  0.517E-01  0.517E-01
  18.966  0.156E+00  0.519E-01  0.519E-01  0.519E-01
  18.976  0.156E+00  0.521E-01  0.521E-01  0.521E-01
  18.986  0.157E+00  0.523E-01  0.523E-01  0.523E-01
  18.996  0.157E+00  0.525E-01  0.525E-01  0.525E-01
  19.006  0.158E+00  0.527E-01  0.527E-01  0.527E-01
  19.016  0.159E+00  0.528E-01  0.528E-01  0.528E-01
  19.026  0.159E+00  0.530E-01  0.530E-01  0.530E-01
  19.036  0.160E+00  0.532E-01  0.532E-01  0.532E-01
  19.046  0.160E+00  0.534E-01  0.534E-01  0.534E-01
  19.056  0.161E+00  0.536E-01  0.536E-01  0.536E-01
  19.066  0.161E+00  0.537E-01  0.537E-01  0.537E-01
  19.076  0.162E+00  0.539E-01  0.539E-01  0.539E-01
  19.086  0.162E+00  0.540E-01  0.540E-01  0.540E-01
  19.096  0.162E+00  0.542E-01  0.542E-01  0.542E-01
  19.106  0.163E+00  0.543E-01  0.543E-01  0.543E-01
  19.116  0.163E+00  0.544E-01  0.544E-01  0.544E-01
  19.126  0.164E+00  0.546E-01  0.546E-01  0.546E-01
  19.136  0.164E+00  0.548E-01  0.548E-01  0.548E-01
  19.146  0.165E+00  0.549E-01  0.549E-01  0.549E-01
  19.156  0.165E+00  0.552E-01  0.552E-01  0.552E-01
  19.166  0.166E+00  0.554E-01  0.554E-01  0.554E-01
  19.176  0.167E+00  0.556E-01  0.556E-01  0.556E-01
  19.186  0.168E+00  0.559E-01  0.559E-01  0.559E-01
  19.196  0.169E+00  0.562E-01  0.562E-01  0.562E-01
  19.206  0.169E+00  0.565E-01  0.565E-01  0.565E-01
  19.216  0.170E+00  0.568E-01  0.568E-01  0.568E-01
  19.226  0.171E+00  0.572E-01  0.572E-01  0.572E-01
  19.236  0.173E+00  0.575E-01  0.575E-01  0.575E-01
  19.246  0.174E+00  0.579E-01  0.579E-01  0.579E-01
  19.256  0.175E+00  0.583E-01  0.583E-01  0.583E-01
  19.266  0.176E+00  0.586E-01  0.586E-01  0.586E-01
  19.276  0.177E+00  0.590E-01  0.590E-01  0.590E-01
  19.286  0.178E+00  0.593E-01  0.593E-01  0.593E-01
  19.296  0.179E+00  0.596E-01  0.596E-01  0.596E-01
  19.306  0.180E+00  0.599E-01  0.599E-01  0.599E-01
  19.316  0.181E+00  0.602E-01  0.602E-01  0.602E-01
  19.326  0.181E+00  0.605E-01  0.605E-01  0.605E-01
  19.336  0.182E+00  0.607E-01  0.607E-01  0.607E-01
  19.346  0.183E+00  0.608E-01  0.608E-01  0.608E-01
  19.356  0.183E+00  0.609E-01  0.609E-01  0.609E-01
  19.366  0.183E+00  0.610E-01  0.610E-01  0.610E-01
  19.376  0.183E+00  0.610E-01  0.610E-01  0.610E-01
  19.386  0.183E+00  0.610E-01  0.610E-01  0.610E-01
  19.396  0.183E+00  0.609E-01  0.609E-01  0.609E-01
  19.406  0.182E+00  0.607E-01  0.607E-01  0.607E-01
  19.416  0.181E+00  0.605E-01  0.605E-01  0.605E-01
  19.426  0.181E+00  0.602E-01  0.602E-01  0.602E-01
  19.436  0.179E+00  0.598E-01  0.598E-01  0.598E-01
  19.446  0.178E+00  0.594E-01  0.594E-01  0.594E-01
  19.456  0.177E+00  0.590E-01  0.590E-01  0.590E-01
  19.466  0.176E+00  0.585E-01  0.585E-01  0.585E-01
  19.476  0.174E+00  0.580E-01  0.580E-01  0.580E-01
  19.486  0.172E+00  0.575E-01  0.575E-01  0.575E-01
  19.496  0.171E+00  0.569E-01  0.569E-01  0.569E-01
  19.506  0.169E+00  0.564E-01  0.564E-01  0.564E-01
  19.516  0.168E+00  0.559E-01  0.559E-01  0.559E-01
  19.526  0.166E+00  0.554E-01  0.554E-01  0.554E-01
  19.536  0.165E+00  0.549E-01  0.549E-01  0.549E-01
  19.546  0.164E+00  0.545E-01  0.545E-01  0.545E-01
  19.556  0.162E+00  0.541E-01  0.541E-01  0.541E-01
  19.566  0.161E+00  0.538E-01  0.538E-01  0.538E-01
  19.576  0.160E+00  0.535E-01  0.535E-01  0.535E-01
  19.586  0.160E+00  0.532E-01  0.532E-01  0.532E-01
  19.596  0.159E+00  0.530E-01  0.530E-01  0.530E-01
  19.606  0.158E+00  0.528E-01  0.528E-01  0.528E-01
  19.616  0.158E+00  0.527E-01  0.527E-01  0.527E-01
  19.626  0.158E+00  0.526E-01  0.526E-01  0.526E-01
  19.636  0.157E+00  0.525E-01  0.525E-01  0.525E-01
  19.646  0.157E+00  0.524E-01  0.524E-01  0.524E-01
  19.656  0.157E+00  0.523E-01  0.523E-01  0.523E-01
  19.666  0.157E+00  0.523E-01  0.523E-01  0.523E-01
  19.676  0.157E+00  0.523E-01  0.523E-01  0.523E-01
  19.686  0.157E+00  0.522E-01  0.522E-01  0.522E-01
  19.696  0.157E+00  0.522E-01  0.522E-01  0.522E-01
  19.706  0.156E+00  0.521E-01  0.521E-01  0.521E-01
  19.716  0.156E+00  0.520E-01  0.520E-01  0.520E-01
  19.726  0.156E+00  0.520E-01  0.520E-01  0.520E-01
  19.736  0.156E+00  0.519E-01  0.519E-01  0.519E-01
  19.746  0.155E+00  0.518E-01  0.518E-01  0.518E-01
  19.756  0.155E+00  0.516E-01  0.516E-01  0.516E-01
  19.766  0.155E+00  0.515E-01  0.515E-01  0.515E-01
  19.776  0.154E+00  0.514E-01  0.514E-01  0.514E-01
  19.786  0.154E+00  0.512E-01  0.512E-01  0.512E-01
  19.796  0.153E+00  0.511E-01  0.511E-01  0.511E-01
  19.806  0.153E+00  0.509E-01  0.509E-01  0.509E-01
  19.816  0.152E+00  0.508E-01  0.508E-01  0.508E-01
  19.826  0.152E+00  0.507E-01  0.507E-01  0.507E-01
  19.836  0.152E+00  0.506E-01  0.506E-01  0.506E-01
  19.846  0.152E+00  0.505E-01  0.505E-01  0.505E-01
  19.856  0.151E+00  0.505E-01  0.505E-01  0.505E-01
  19.866  0.151E+00  0.505E-01  0.505E-01  0.505E-01
  19.876  0.151E+00  0.504E-01  0.504E-01  0.504E-01
  19.886  0.151E+00  0.505E-01  0.505E-01  0.505E-01
  19.896  0.151E+00  0.505E-01  0.505E-01  0.505E-01
  19.906  0.152E+00  0.505E-01  0.505E-01  0.505E-01
  19.916  0.152E+00  0.506E-01  0.506E-01  0.506E-01
  19.926  0.152E+00  0.506E-01  0.506E-01  0.506E-01
  19.936  0.152E+00  0.507E-01  0.507E-01  0.507E-01
  19.946  0.152E+00  0.507E-01  0.507E-01  0.507E-01
  19.956  0.152E+00  0.507E-01  0.507E-01  0.507E-01
  19.966  0.152E+00  0.506E-01  0.506E-01  0.506E-01
  19.976  0.152E+00  0.506E-01  0.506E-01  0.506E-01
  19.986  0.151E+00  0.505E-01  0.505E-01  0.505E-01
  19.996  0.151E+00  0.503E-01  0.503E-01  0.503E-01
  20.006  0.150E+00  0.501E-01  0.501E-01  0.501E-01
  20.016  0.149E+00  0.498E-01  0.498E-01  0.498E-01
  20.026  0.149E+00  0.495E-01  0.495E-01  0.495E-01
  20.036  0.148E+00  0.492E-01  0.492E-01  0.492E-01
  20.046  0.146E+00  0.488E-01  0.488E-01  0.488E-01
  20.056  0.145E+00  0.484E-01  0.484E-01  0.484E-01
  20.066  0.144E+00  0.480E-01  0.480E-01  0.480E-01
  20.076  0.143E+00  0.475E-01  0.475E-01  0.475E-01
  20.086  0.141E+00  0.471E-01  0.471E-01  0.471E-01
  20.096  0.140E+00  0.467E-01  0.467E-01  0.467E-01
  20.106  0.139E+00  0.463E-01  0.463E-01  0.463E-01
  20.116  0.138E+00  0.459E-01  0.459E-01  0.459E-01
  20.126  0.137E+00  0.456E-01  0.456E-01  0.456E-01
  20.136  0.136E+00  0.453E-01  0.453E-01  0.453E-01
  20.146  0.135E+00  0.451E-01  0.451E-01  0.451E-01
  20.156  0.135E+00  0.449E-01  0.449E-01  0.449E-01
  20.166  0.134E+00  0.447E-01  0.447E-01  0.447E-01
  20.176  0.134E+00  0.446E-01  0.446E-01  0.446E-01
  20.186  0.134E+00  0.446E-01  0.446E-01  0.446E-01
  20.196  0.134E+00  0.446E-01  0.446E-01  0.446E-01
  20.206  0.134E+00  0.446E-01  0.446E-01  0.446E-01
  20.216  0.134E+00  0.447E-01  0.447E-01  0.447E-01
  20.226  0.134E+00  0.448E-01  0.448E-01  0.448E-01
  20.236  0.135E+00  0.449E-01  0.449E-01  0.449E-01
  20.246  0.135E+00  0.450E-01  0.450E-01  0.450E-01
  20.256  0.135E+00  0.452E-01  0.452E-01  0.452E-01
  20.266  0.136E+00  0.453E-01  0.453E-01  0.453E-01
  20.276  0.136E+00  0.454E-01  0.454E-01  0.454E-01
  20.286  0.136E+00  0.455E-01  0.455E-01  0.455E-01
  20.296  0.137E+00  0.456E-01  0.456E-01  0.456E-01
  20.306  0.137E+00  0.456E-01  0.456E-01  0.456E-01
  20.316  0.137E+00  0.456E-01  0.456E-01  0.456E-01
  20.326  0.137E+00  0.456E-01  0.456E-01  0.456E-01
  20.336  0.137E+00  0.455E-01  0.455E-01  0.455E-01
  20.346  0.136E+00  0.455E-01  0.455E-01  0.455E-01
  20.356  0.136E+00  0.454E-01  0.454E-01  0.454E-01
  20.366  0.136E+00  0.452E-01  0.452E-01  0.452E-01
  20.376  0.135E+00  0.451E-01  0.451E-01  0.451E-01
  20.386  0.135E+00  0.449E-01  0.449E-01  0.449E-01
  20.396  0.134E+00  0.448E-01  0.448E-01  0.448E-01
  20.406  0.134E+00  0.446E-01  0.446E-01  0.446E-01
  20.416  0.133E+00  0.444E-01  0.444E-01  0.444E-01
  20.426  0.133E+00  0.443E-01  0.443E-01  0.443E-01
  20.436  0.132E+00  0.441E-01  0.441E-01  0.441E-01
  20.446  0.132E+00  0.440E-01  0.440E-01  0.440E-01
  20.456  0.132E+00  0.439E-01  0.439E-01  0.439E-01
  20.466  0.131E+00  0.438E-01  0.438E-01  0.438E-01
  20.476  0.131E+00  0.438E-01  0.438E-01  0.438E-01
  20.486  0.131E+00  0.437E-01  0.437E-01  0.437E-01
  20.496  0.131E+00  0.437E-01  0.437E-01  0.437E-01
  20.506  0.131E+00  0.436E-01  0.436E-01  0.436E-01
  20.516  0.131E+00  0.436E-01  0.436E-01  0.436E-01
  20.526  0.130E+00  0.435E-01  0.435E-01  0.435E-01
  20.536  0.130E+00  0.434E-01  0.434E-01  0.434E-01
  20.546  0.130E+00  0.433E-01  0.433E-01  0.433E-01
  20.556  0.130E+00  0.432E-01  0.432E-01  0.432E-01
  20.566  0.129E+00  0.431E-01  0.431E-01  0.431E-01
  20.576  0.129E+00  0.429E-01  0.429E-01  0.429E-01
  20.586  0.128E+00  0.427E-01  0.427E-01  0.427E-01
  20.596  0.127E+00  0.424E-01  0.424E-01  0.424E-01
  20.606  0.126E+00  0.421E-01  0.421E-01  0.421E-01
  20.616  0.125E+00  0.418E-01  0.418E-01  0.418E-01
  20.626  0.125E+00  0.415E-01  0.415E-01  0.415E-01
  20.636  0.123E+00  0.412E-01  0.412E-01  0.412E-01
  20.646  0.122E+00  0.408E-01  0.408E-01  0.408E-01
  20.656  0.121E+00  0.405E-01  0.405E-01  0.405E-01
  20.666  0.120E+00  0.401E-01  0.401E-01  0.401E-01
  20.676  0.119E+00  0.398E-01  0.398E-01  0.398E-01
  20.686  0.118E+00  0.394E-01  0.394E-01  0.394E-01
  20.696  0.117E+00  0.391E-01  0.391E-01  0.391E-01
  20.706  0.117E+00  0.389E-01  0.389E-01  0.389E-01
  20.716  0.116E+00  0.386E-01  0.386E-01  0.386E-01
  20.726  0.115E+00  0.384E-01  0.384E-01  0.384E-01
  20.736  0.115E+00  0.383E-01  0.383E-01  0.383E-01
  20.746  0.114E+00  0.381E-01  0.381E-01  0.381E-01
  20.756  0.114E+00  0.381E-01  0.381E-01  0.381E-01
  20.766  0.114E+00  0.380E-01  0.380E-01  0.380E-01
  20.776  0.114E+00  0.380E-01  0.380E-01  0.380E-01
  20.786  0.114E+00  0.380E-01  0.380E-01  0.380E-01
  20.796  0.114E+00  0.380E-01  0.380E-01  0.380E-01
  20.806  0.114E+00  0.380E-01  0.380E-01  0.380E-01
  20.816  0.114E+00  0.380E-01  0.380E-01  0.380E-01
  20.826  0.114E+00  0.381E-01  0.381E-01  0.381E-01
  20.836  0.114E+00  0.381E-01  0.381E-01  0.381E-01
  20.846  0.114E+00  0.381E-01  0.381E-01  0.381E-01
  20.856  0.115E+00  0.382E-01  0.382E-01  0.382E-01
  20.866  0.115E+00  0.382E-01  0.382E-01  0.382E-01
  20.876  0.115E+00  0.382E-01  0.382E-01  0.382E-01
  20.886  0.115E+00  0.382E-01  0.382E-01  0.382E-01
  20.896  0.115E+00  0.382E-01  0.382E-01  0.382E-01
  20.906  0.114E+00  0.381E-01  0.381E-01  0.381E-01
  20.916  0.114E+00  0.381E-01  0.381E-01  0.381E-01
  20.926  0.114E+00  0.381E-01  0.381E-01  0.381E-01
  20.936  0.114E+00  0.380E-01  0.380E-01  0.380E-01
  20.946  0.114E+00  0.380E-01  0.380E-01  0.380E-01
  20.956  0.114E+00  0.380E-01  0.380E-01  0.380E-01
  20.966  0.114E+00  0.380E-01  0.380E-01  0.380E-01
  20.976  0.114E+00  0.380E-01  0.380E-01  0.380E-01
  20.986  0.114E+00  0.380E-01  0.380E-01  0.380E-01
  20.996  0.114E+00  0.380E-01  0.380E-01  0.380E-01
  21.006  0.114E+00  0.380E-01  0.380E-01  0.380E-01
  21.016  0.114E+00  0.381E-01  0.381E-01  0.381E-01
  21.026  0.114E+00  0.381E-01  0.381E-01  0.381E-01
  21.036  0.115E+00  0.382E-01  0.382E-01  0.382E-01
  21.046  0.115E+00  0.383E-01  0.383E-01  0.383E-01
  21.056  0.115E+00  0.383E-01  0.383E-01  0.383E-01
  21.066  0.115E+00  0.384E-01  0.384E-01  0.384E-01
  21.076  0.115E+00  0.384E-01  0.384E-01  0.384E-01
  21.086  0.115E+00  0.384E-01  0.384E-01  0.384E-01
  21.096  0.115E+00  0.384E-01  0.384E-01  0.384E-01
  21.106  0.115E+00  0.384E-01  0.384E-01  0.384E-01
  21.116  0.115E+00  0.383E-01  0.383E-01  0.383E-01
  21.126  0.115E+00  0.383E-01  0.383E-01  0.383E-01
  21.136  0.115E+00  0.382E-01  0.382E-01  0.382E-01
  21.146  0.114E+00  0.380E-01  0.380E-01  0.380E-01
  21.156  0.114E+00  0.379E-01  0.379E-01  0.379E-01
  21.166  0.113E+00  0.377E-01  0.377E-01  0.377E-01
  21.176  0.113E+00  0.375E-01  0.375E-01  0.375E-01
  21.186  0.112E+00  0.373E-01  0.373E-01  0.373E-01
  21.196  0.111E+00  0.371E-01  0.371E-01  0.371E-01
  21.206  0.111E+00  0.369E-01  0.369E-01  0.369E-01
  21.216  0.110E+00  0.367E-01  0.367E-01  0.367E-01
  21.226  0.109E+00  0.364E-01  0.364E-01  0.364E-01
  21.236  0.109E+00  0.362E-01  0.362E-01  0.362E-01
  21.246  0.108E+00  0.360E-01  0.360E-01  0.360E-01
  21.256  0.107E+00  0.358E-01  0.358E-01  0.358E-01
  21.266  0.107E+00  0.356E-01  0.356E-01  0.356E-01
  21.276  0.106E+00  0.354E-01  0.354E-01  0.354E-01
  21.286  0.106E+00  0.352E-01  0.352E-01  0.352E-01
  21.296  0.105E+00  0.351E-01  0.351E-01  0.351E-01
  21.306  0.105E+00  0.349E-01  0.349E-01  0.349E-01
  21.316  0.105E+00  0.348E-01  0.348E-01  0.348E-01
  21.326  0.104E+00  0.348E-01  0.348E-01  0.348E-01
  21.336  0.104E+00  0.347E-01  0.347E-01  0.347E-01
  21.346  0.104E+00  0.347E-01  0.347E-01  0.347E-01
  21.356  0.104E+00  0.348E-01  0.348E-01  0.348E-01
  21.366  0.104E+00  0.348E-01  0.348E-01  0.348E-01
  21.376  0.105E+00  0.349E-01  0.349E-01  0.349E-01
  21.386  0.105E+00  0.350E-01  0.350E-01  0.350E-01
  21.396  0.105E+00  0.351E-01  0.351E-01  0.351E-01
  21.406  0.106E+00  0.352E-01  0.352E-01  0.352E-01
  21.416  0.106E+00  0.354E-01  0.354E-01  0.354E-01
  21.426  0.106E+00  0.355E-01  0.355E-01  0.355E-01
  21.436  0.107E+00  0.356E-01  0.356E-01  0.356E-01
  21.446  0.107E+00  0.357E-01  0.357E-01  0.357E-01
  21.456  0.107E+00  0.358E-01  0.358E-01  0.358E-01
  21.466  0.108E+00  0.358E-01  0.358E-01  0.358E-01
  21.476  0.108E+00  0.359E-01  0.359E-01  0.359E-01
  21.486  0.108E+00  0.359E-01  0.359E-01  0.359E-01
  21.496  0.107E+00  0.358E-01  0.358E-01  0.358E-01
  21.506  0.107E+00  0.357E-01  0.357E-01  0.357E-01
  21.516  0.107E+00  0.356E-01  0.356E-01  0.356E-01
  21.526  0.106E+00  0.355E-01  0.355E-01  0.355E-01
  21.536  0.106E+00  0.353E-01  0.353E-01  0.353E-01
  21.546  0.105E+00  0.351E-01  0.351E-01  0.351E-01
  21.556  0.105E+00  0.349E-01  0.349E-01  0.349E-01
  21.566  0.104E+00  0.347E-01  0.347E-01  0.347E-01
  21.576  0.104E+00  0.345E-01  0.345E-01  0.345E-01
  21.586  0.103E+00  0.344E-01  0.344E-01  0.344E-01
  21.596  0.103E+00  0.342E-01  0.342E-01  0.342E-01
  21.606  0.102E+00  0.341E-01  0.341E-01  0.341E-01
  21.616  0.102E+00  0.340E-01  0.340E-01  0.340E-01
  21.626  0.102E+00  0.339E-01  0.339E-01  0.339E-01
  21.636  0.102E+00  0.339E-01  0.339E-01  0.339E-01
  21.646  0.102E+00  0.339E-01  0.339E-01  0.339E-01
  21.656  0.102E+00  0.340E-01  0.340E-01  0.340E-01
  21.666  0.102E+00  0.341E-01  0.341E-01  0.341E-01
  21.676  0.103E+00  0.343E-01  0.343E-01  0.343E-01
  21.686  0.103E+00  0.345E-01  0.345E-01  0.345E-01
  21.696  0.104E+00  0.347E-01  0.347E-01  0.347E-01
  21.706  0.105E+00  0.350E-01  0.350E-01  0.350E-01
  21.716  0.106E+00  0.353E-01  0.353E-01  0.353E-01
  21.726  0.107E+00  0.355E-01  0.355E-01  0.355E-01
  21.736  0.108E+00  0.358E-01  0.358E-01  0.358E-01
  21.746  0.108E+00  0.361E-01  0.361E-01  0.361E-01
  21.756  0.109E+00  0.364E-01  0.364E-01  0.364E-01
  21.766  0.110E+00  0.367E-01  0.367E-01  0.367E-01
  21.776  0.111E+00  0.369E-01  0.369E-01  0.369E-01
  21.786  0.111E+00  0.371E-01  0.371E-01  0.371E-01
  21.796  0.112E+00  0.373E-01  0.373E-01  0.373E-01
  21.806  0.112E+00  0.374E-01  0.374E-01  0.374E-01
  21.816  0.113E+00  0.375E-01  0.375E-01  0.375E-01
  21.826  0.113E+00  0.376E-01  0.376E-01  0.376E-01
  21.836  0.113E+00  0.377E-01  0.377E-01  0.377E-01
  21.846  0.113E+00  0.377E-01  0.377E-01  0.377E-01
  21.856  0.113E+00  0.377E-01  0.377E-01  0.377E-01
  21.866  0.113E+00  0.376E-01  0.376E-01  0.376E-01
  21.876  0.113E+00  0.376E-01  0.376E-01  0.376E-01
  21.886  0.113E+00  0.376E-01  0.376E-01  0.376E-01
  21.896  0.113E+00  0.375E-01  0.375E-01  0.375E-01
  21.906  0.112E+00  0.375E-01  0.375E-01  0.375E-01
  21.916  0.112E+00  0.375E-01  0.375E-01  0.375E-01
  21.926  0.112E+00  0.374E-01  0.374E-01  0.374E-01
  21.936  0.112E+00  0.374E-01  0.374E-01  0.374E-01
  21.946  0.112E+00  0.375E-01  0.375E-01  0.375E-01
  21.956  0.113E+00  0.375E-01  0.375E-01  0.375E-01
  21.966  0.113E+00  0.376E-01  0.376E-01  0.376E-01
  21.976  0.113E+00  0.377E-01  0.377E-01  0.377E-01
  21.986  0.113E+00  0.378E-01  0.378E-01  0.378E-01
  21.996  0.114E+00  0.379E-01  0.379E-01  0.379E-01
  22.006  0.114E+00  0.381E-01  0.381E-01  0.381E-01
  22.016  0.115E+00  0.383E-01  0.383E-01  0.383E-01
  22.026  0.115E+00  0.385E-01  0.385E-01  0.385E-01
  22.036  0.116E+00  0.387E-01  0.387E-01  0.387E-01
  22.046  0.117E+00  0.389E-01  0.389E-01  0.389E-01
  22.056  0.117E+00  0.390E-01  0.390E-01  0.390E-01
  22.066  0.118E+00  0.392E-01  0.392E-01  0.392E-01
  22.076  0.118E+00  0.393E-01  0.393E-01  0.393E-01
  22.086  0.118E+00  0.394E-01  0.394E-01  0.394E-01
  22.096  0.119E+00  0.395E-01  0.395E-01  0.395E-01
  22.106  0.119E+00  0.396E-01  0.396E-01  0.396E-01
  22.116  0.119E+00  0.396E-01  0.396E-01  0.396E-01
  22.126  0.119E+00  0.395E-01  0.395E-01  0.395E-01
  22.136  0.118E+00  0.395E-01  0.395E-01  0.395E-01
  22.146  0.118E+00  0.394E-01  0.394E-01  0.394E-01
  22.156  0.118E+00  0.392E-01  0.392E-01  0.392E-01
  22.166  0.117E+00  0.390E-01  0.390E-01  0.390E-01
  22.176  0.117E+00  0.388E-01  0.388E-01  0.388E-01
  22.186  0.116E+00  0.386E-01  0.386E-01  0.386E-01
  22.196  0.115E+00  0.384E-01  0.384E-01  0.384E-01
  22.206  0.115E+00  0.382E-01  0.382E-01  0.382E-01
  22.216  0.114E+00  0.380E-01  0.380E-01  0.380E-01
  22.226  0.114E+00  0.378E-01  0.378E-01  0.378E-01
  22.236  0.113E+00  0.377E-01  0.377E-01  0.377E-01
  22.246  0.113E+00  0.376E-01  0.376E-01  0.376E-01
  22.256  0.112E+00  0.375E-01  0.375E-01  0.375E-01
  22.266  0.112E+00  0.374E-01  0.374E-01  0.374E-01
  22.276  0.112E+00  0.374E-01  0.374E-01  0.374E-01
  22.286  0.112E+00  0.374E-01  0.374E-01  0.374E-01
  22.296  0.112E+00  0.374E-01  0.374E-01  0.374E-01
  22.306  0.112E+00  0.374E-01  0.374E-01  0.374E-01
  22.316  0.113E+00  0.375E-01  0.375E-01  0.375E-01
  22.326  0.113E+00  0.376E-01  0.376E-01  0.376E-01
  22.336  0.113E+00  0.377E-01  0.377E-01  0.377E-01
  22.346  0.114E+00  0.379E-01  0.379E-01  0.379E-01
  22.356  0.114E+00  0.380E-01  0.380E-01  0.380E-01
  22.366  0.114E+00  0.381E-01  0.381E-01  0.381E-01
  22.376  0.115E+00  0.382E-01  0.382E-01  0.382E-01
  22.386  0.115E+00  0.383E-01  0.383E-01  0.383E-01
  22.396  0.115E+00  0.384E-01  0.384E-01  0.384E-01
  22.406  0.115E+00  0.384E-01  0.384E-01  0.384E-01
  22.416  0.115E+00  0.384E-01  0.384E-01  0.384E-01
  22.426  0.115E+00  0.384E-01  0.384E-01  0.384E-01
  22.436  0.115E+00  0.383E-01  0.383E-01  0.383E-01
  22.446  0.115E+00  0.382E-01  0.382E-01  0.382E-01
  22.456  0.114E+00  0.381E-01  0.381E-01  0.381E-01
  22.466  0.114E+00  0.379E-01  0.379E-01  0.379E-01
  22.476  0.113E+00  0.377E-01  0.377E-01  0.377E-01
  22.486  0.112E+00  0.374E-01  0.374E-01  0.374E-01
  22.496  0.111E+00  0.372E-01  0.372E-01  0.372E-01
  22.506  0.111E+00  0.368E-01  0.368E-01  0.368E-01
  22.516  0.109E+00  0.365E-01  0.365E-01  0.365E-01
  22.526  0.108E+00  0.361E-01  0.361E-01  0.361E-01
  22.536  0.107E+00  0.357E-01  0.357E-01  0.357E-01
  22.546  0.106E+00  0.354E-01  0.354E-01  0.354E-01
  22.556  0.105E+00  0.350E-01  0.350E-01  0.350E-01
  22.566  0.104E+00  0.346E-01  0.346E-01  0.346E-01
  22.576  0.103E+00  0.343E-01  0.343E-01  0.343E-01
  22.586  0.102E+00  0.340E-01  0.340E-01  0.340E-01
  22.596  0.101E+00  0.338E-01  0.338E-01  0.338E-01
  22.606  0.101E+00  0.335E-01  0.335E-01  0.335E-01
  22.616  0.100E+00  0.334E-01  0.334E-01  0.334E-01
  22.626  0.998E-01  0.333E-01  0.333E-01  0.333E-01
  22.636  0.997E-01  0.332E-01  0.332E-01  0.332E-01
  22.646  0.997E-01  0.332E-01  0.332E-01  0.332E-01
  22.656  0.999E-01  0.333E-01  0.333E-01  0.333E-01
  22.666  0.100E+00  0.334E-01  0.334E-01  0.334E-01
  22.676  0.101E+00  0.335E-01  0.335E-01  0.335E-01
  22.686  0.101E+00  0.337E-01  0.337E-01  0.337E-01
  22.696  0.102E+00  0.339E-01  0.339E-01  0.339E-01
  22.706  0.102E+00  0.341E-01  0.341E-01  0.341E-01
  22.716  0.103E+00  0.343E-01  0.343E-01  0.343E-01
  22.726  0.103E+00  0.344E-01  0.344E-01  0.344E-01
  22.736  0.104E+00  0.346E-01  0.346E-01  0.346E-01
  22.746  0.104E+00  0.347E-01  0.347E-01  0.347E-01
  22.756  0.104E+00  0.348E-01  0.348E-01  0.348E-01
  22.766  0.105E+00  0.348E-01  0.348E-01  0.348E-01
  22.776  0.105E+00  0.348E-01  0.348E-01  0.348E-01
  22.786  0.104E+00  0.348E-01  0.348E-01  0.348E-01
  22.796  0.104E+00  0.347E-01  0.347E-01  0.347E-01
  22.806  0.104E+00  0.346E-01  0.346E-01  0.346E-01
  22.816  0.103E+00  0.345E-01  0.345E-01  0.345E-01
  22.826  0.103E+00  0.343E-01  0.343E-01  0.343E-01
  22.836  0.102E+00  0.341E-01  0.341E-01  0.341E-01
  22.846  0.102E+00  0.338E-01  0.338E-01  0.338E-01
  22.856  0.101E+00  0.336E-01  0.336E-01  0.336E-01
  22.866  0.100E+00  0.333E-01  0.333E-01  0.333E-01
  22.876  0.992E-01  0.331E-01  0.331E-01  0.331E-01
  22.886  0.984E-01  0.328E-01  0.328E-01  0.328E-01
  22.896  0.976E-01  0.325E-01  0.325E-01  0.325E-01
  22.906  0.967E-01  0.322E-01  0.322E-01  0.322E-01
  22.916  0.959E-01  0.320E-01  0.320E-01  0.320E-01
  22.926  0.951E-01  0.317E-01  0.317E-01  0.317E-01
  22.936  0.943E-01  0.314E-01  0.314E-01  0.314E-01
  22.946  0.935E-01  0.312E-01  0.312E-01  0.312E-01
  22.956  0.927E-01  0.309E-01  0.309E-01  0.309E-01
  22.966  0.919E-01  0.306E-01  0.306E-01  0.306E-01
  22.976  0.912E-01  0.304E-01  0.304E-01  0.304E-01
  22.986  0.905E-01  0.302E-01  0.302E-01  0.302E-01
  22.996  0.898E-01  0.299E-01  0.299E-01  0.299E-01
  23.006  0.891E-01  0.297E-01  0.297E-01  0.297E-01
  23.016  0.885E-01  0.295E-01  0.295E-01  0.295E-01
  23.026  0.879E-01  0.293E-01  0.293E-01  0.293E-01
  23.036  0.874E-01  0.291E-01  0.291E-01  0.291E-01
  23.046  0.868E-01  0.289E-01  0.289E-01  0.289E-01
  23.056  0.863E-01  0.288E-01  0.288E-01  0.288E-01
  23.066  0.858E-01  0.286E-01  0.286E-01  0.286E-01
  23.076  0.854E-01  0.285E-01  0.285E-01  0.285E-01
  23.086  0.849E-01  0.283E-01  0.283E-01  0.283E-01
  23.096  0.844E-01  0.281E-01  0.281E-01  0.281E-01
  23.106  0.840E-01  0.280E-01  0.280E-01  0.280E-01
  23.116  0.835E-01  0.278E-01  0.278E-01  0.278E-01
  23.126  0.831E-01  0.277E-01  0.277E-01  0.277E-01
  23.136  0.826E-01  0.275E-01  0.275E-01  0.275E-01
  23.146  0.821E-01  0.274E-01  0.274E-01  0.274E-01
  23.156  0.816E-01  0.272E-01  0.272E-01  0.272E-01
  23.166  0.811E-01  0.270E-01  0.270E-01  0.270E-01
  23.176  0.806E-01  0.269E-01  0.269E-01  0.269E-01
  23.186  0.801E-01  0.267E-01  0.267E-01  0.267E-01
  23.196  0.796E-01  0.265E-01  0.265E-01  0.265E-01
  23.206  0.791E-01  0.264E-01  0.264E-01  0.264E-01
  23.216  0.786E-01  0.262E-01  0.262E-01  0.262E-01
  23.226  0.781E-01  0.260E-01  0.260E-01  0.260E-01
  23.236  0.777E-01  0.259E-01  0.259E-01  0.259E-01
  23.246  0.772E-01  0.257E-01  0.257E-01  0.257E-01
  23.256  0.768E-01  0.256E-01  0.256E-01  0.256E-01
  23.266  0.764E-01  0.255E-01  0.255E-01  0.255E-01
  23.276  0.760E-01  0.253E-01  0.253E-01  0.253E-01
  23.286  0.756E-01  0.252E-01  0.252E-01  0.252E-01
  23.296  0.752E-01  0.251E-01  0.251E-01  0.251E-01
  23.306  0.748E-01  0.249E-01  0.249E-01  0.249E-01
  23.316  0.745E-01  0.248E-01  0.248E-01  0.248E-01
  23.326  0.741E-01  0.247E-01  0.247E-01  0.247E-01
  23.336  0.737E-01  0.246E-01  0.246E-01  0.246E-01
  23.346  0.733E-01  0.244E-01  0.244E-01  0.244E-01
  23.356  0.729E-01  0.243E-01  0.243E-01  0.243E-01
  23.366  0.725E-01  0.242E-01  0.242E-01  0.242E-01
  23.376  0.721E-01  0.240E-01  0.240E-01  0.240E-01
  23.386  0.716E-01  0.239E-01  0.239E-01  0.239E-01
  23.396  0.710E-01  0.237E-01  0.237E-01  0.237E-01
  23.406  0.705E-01  0.235E-01  0.235E-01  0.235E-01
  23.416  0.699E-01  0.233E-01  0.233E-01  0.233E-01
  23.426  0.692E-01  0.231E-01  0.231E-01  0.231E-01
  23.436  0.685E-01  0.228E-01  0.228E-01  0.228E-01
  23.446  0.677E-01  0.226E-01  0.226E-01  0.226E-01
  23.456  0.669E-01  0.223E-01  0.223E-01  0.223E-01
  23.466  0.660E-01  0.220E-01  0.220E-01  0.220E-01
  23.476  0.651E-01  0.217E-01  0.217E-01  0.217E-01
  23.486  0.642E-01  0.214E-01  0.214E-01  0.214E-01
  23.496  0.632E-01  0.211E-01  0.211E-01  0.211E-01
  23.506  0.622E-01  0.207E-01  0.207E-01  0.207E-01
  23.516  0.611E-01  0.204E-01  0.204E-01  0.204E-01
  23.526  0.600E-01  0.200E-01  0.200E-01  0.200E-01
  23.536  0.589E-01  0.196E-01  0.196E-01  0.196E-01
  23.546  0.578E-01  0.193E-01  0.193E-01  0.193E-01
  23.556  0.567E-01  0.189E-01  0.189E-01  0.189E-01
  23.566  0.555E-01  0.185E-01  0.185E-01  0.185E-01
  23.576  0.544E-01  0.181E-01  0.181E-01  0.181E-01
  23.586  0.532E-01  0.177E-01  0.177E-01  0.177E-01
  23.596  0.521E-01  0.174E-01  0.174E-01  0.174E-01
  23.606  0.510E-01  0.170E-01  0.170E-01  0.170E-01
  23.616  0.499E-01  0.166E-01  0.166E-01  0.166E-01
  23.626  0.488E-01  0.163E-01  0.163E-01  0.163E-01
  23.636  0.479E-01  0.160E-01  0.160E-01  0.160E-01
  23.646  0.469E-01  0.156E-01  0.156E-01  0.156E-01
  23.656  0.461E-01  0.154E-01  0.154E-01  0.154E-01
  23.666  0.453E-01  0.151E-01  0.151E-01  0.151E-01
  23.676  0.446E-01  0.149E-01  0.149E-01  0.149E-01
  23.686  0.441E-01  0.147E-01  0.147E-01  0.147E-01
  23.696  0.436E-01  0.145E-01  0.145E-01  0.145E-01
  23.706  0.432E-01  0.144E-01  0.144E-01  0.144E-01
  23.716  0.429E-01  0.143E-01  0.143E-01  0.143E-01
  23.726  0.426E-01  0.142E-01  0.142E-01  0.142E-01
  23.736  0.425E-01  0.142E-01  0.142E-01  0.142E-01
  23.746  0.424E-01  0.141E-01  0.141E-01  0.141E-01
  23.756  0.423E-01  0.141E-01  0.141E-01  0.141E-01
  23.766  0.423E-01  0.141E-01  0.141E-01  0.141E-01
  23.776  0.422E-01  0.141E-01  0.141E-01  0.141E-01
  23.786  0.422E-01  0.141E-01  0.141E-01  0.141E-01
  23.796  0.421E-01  0.140E-01  0.140E-01  0.140E-01
  23.806  0.420E-01  0.140E-01  0.140E-01  0.140E-01
  23.816  0.419E-01  0.140E-01  0.140E-01  0.140E-01
  23.826  0.416E-01  0.139E-01  0.139E-01  0.139E-01
  23.836  0.413E-01  0.138E-01  0.138E-01  0.138E-01
  23.846  0.410E-01  0.137E-01  0.137E-01  0.137E-01
  23.856  0.405E-01  0.135E-01  0.135E-01  0.135E-01
  23.866  0.400E-01  0.133E-01  0.133E-01  0.133E-01
  23.876  0.395E-01  0.132E-01  0.132E-01  0.132E-01
  23.886  0.388E-01  0.129E-01  0.129E-01  0.129E-01
  23.896  0.381E-01  0.127E-01  0.127E-01  0.127E-01
  23.906  0.374E-01  0.125E-01  0.125E-01  0.125E-01
  23.916  0.366E-01  0.122E-01  0.122E-01  0.122E-01
  23.926  0.358E-01  0.119E-01  0.119E-01  0.119E-01
  23.936  0.350E-01  0.117E-01  0.117E-01  0.117E-01
  23.946  0.341E-01  0.114E-01  0.114E-01  0.114E-01
  23.956  0.333E-01  0.111E-01  0.111E-01  0.111E-01
  23.966  0.325E-01  0.108E-01  0.108E-01  0.108E-01
  23.976  0.317E-01  0.106E-01  0.106E-01  0.106E-01
  23.986  0.309E-01  0.103E-01  0.103E-01  0.103E-01
  23.996  0.301E-01  0.100E-01  0.100E-01  0.100E-01
  24.006  0.294E-01  0.979E-02  0.979E-02  0.979E-02
  24.016  0.287E-01  0.956E-02  0.956E-02  0.956E-02
  24.026  0.280E-01  0.933E-02  0.933E-02  0.933E-02
  24.036  0.273E-01  0.912E-02  0.912E-02  0.912E-02
  24.046  0.267E-01  0.891E-02  0.891E-02  0.891E-02
  24.056  0.262E-01  0.872E-02  0.872E-02  0.872E-02
  24.066  0.256E-01  0.854E-02  0.854E-02  0.854E-02
  24.076  0.251E-01  0.836E-02  0.836E-02  0.836E-02
  24.086  0.246E-01  0.820E-02  0.820E-02  0.820E-02
  24.096  0.241E-01  0.804E-02  0.804E-02  0.804E-02
  24.106  0.237E-01  0.789E-02  0.789E-02  0.789E-02
  24.116  0.232E-01  0.774E-02  0.774E-02  0.774E-02
  24.126  0.228E-01  0.760E-02  0.760E-02  0.760E-02
  24.136  0.224E-01  0.746E-02  0.746E-02  0.746E-02
  24.146  0.220E-01  0.732E-02  0.732E-02  0.732E-02
  24.156  0.215E-01  0.718E-02  0.718E-02  0.718E-02
  24.166  0.211E-01  0.704E-02  0.704E-02  0.704E-02
  24.176  0.207E-01  0.690E-02  0.690E-02  0.690E-02
  24.186  0.203E-01  0.676E-02  0.676E-02  0.676E-02
  24.196  0.198E-01  0.661E-02  0.661E-02  0.661E-02
  24.206  0.194E-01  0.646E-02  0.646E-02  0.646E-02
  24.216  0.189E-01  0.631E-02  0.631E-02  0.631E-02
  24.226  0.185E-01  0.616E-02  0.616E-02  0.616E-02
  24.236  0.180E-01  0.600E-02  0.600E-02  0.600E-02
  24.246  0.175E-01  0.584E-02  0.584E-02  0.584E-02
  24.256  0.170E-01  0.568E-02  0.568E-02  0.568E-02
  24.266  0.166E-01  0.552E-02  0.552E-02  0.552E-02
  24.276  0.161E-01  0.536E-02  0.536E-02  0.536E-02
  24.286  0.156E-01  0.519E-02  0.519E-02  0.519E-02
  24.296  0.151E-01  0.503E-02  0.503E-02  0.503E-02
  24.306  0.146E-01  0.488E-02  0.488E-02  0.488E-02
  24.316  0.142E-01  0.472E-02  0.472E-02  0.472E-02
  24.326  0.137E-01  0.458E-02  0.458E-02  0.458E-02
  24.336  0.133E-01  0.444E-02  0.444E-02  0.444E-02
  24.346  0.129E-01  0.431E-02  0.431E-02  0.431E-02
  24.356  0.126E-01  0.420E-02  0.420E-02  0.420E-02
  24.366  0.123E-01  0.409E-02  0.409E-02  0.409E-02
  24.376  0.120E-01  0.400E-02  0.400E-02  0.400E-02
  24.386  0.118E-01  0.393E-02  0.393E-02  0.393E-02
  24.396  0.116E-01  0.387E-02  0.387E-02  0.387E-02
  24.406  0.115E-01  0.383E-02  0.383E-02  0.383E-02
  24.416  0.114E-01  0.380E-02  0.380E-02  0.380E-02
  24.426  0.113E-01  0.378E-02  0.378E-02  0.378E-02
  24.436  0.113E-01  0.378E-02  0.378E-02  0.378E-02
  24.446  0.113E-01  0.378E-02  0.378E-02  0.378E-02
  24.456  0.114E-01  0.380E-02  0.380E-02  0.380E-02
  24.466  0.115E-01  0.382E-02  0.382E-02  0.382E-02
  24.476  0.115E-01  0.385E-02  0.385E-02  0.385E-02
  24.486  0.116E-01  0.388E-02  0.388E-02  0.388E-02
  24.496  0.117E-01  0.391E-02  0.391E-02  0.391E-02
  24.506  0.118E-01  0.395E-02  0.395E-02  0.395E-02
  24.516  0.119E-01  0.398E-02  0.398E-02  0.398E-02
  24.526  0.120E-01  0.401E-02  0.401E-02  0.401E-02
  24.536  0.121E-01  0.404E-02  0.404E-02  0.404E-02
  24.546  0.122E-01  0.406E-02  0.406E-02  0.406E-02
  24.556  0.122E-01  0.408E-02  0.408E-02  0.408E-02
  24.566  0.123E-01  0.409E-02  0.409E-02  0.409E-02
  24.576  0.123E-01  0.410E-02  0.410E-02  0.410E-02
  24.586  0.123E-01  0.410E-02  0.410E-02  0.410E-02
  24.596  0.123E-01  0.410E-02  0.410E-02  0.410E-02
  24.606  0.123E-01  0.409E-02  0.409E-02  0.409E-02
  24.616  0.122E-01  0.408E-02  0.408E-02  0.408E-02
  24.626  0.122E-01  0.406E-02  0.406E-02  0.406E-02
  24.636  0.121E-01  0.404E-02  0.404E-02  0.404E-02
  24.646  0.120E-01  0.402E-02  0.402E-02  0.402E-02
  24.656  0.120E-01  0.399E-02  0.399E-02  0.399E-02
  24.666  0.118E-01  0.395E-02  0.395E-02  0.395E-02
  24.676  0.117E-01  0.391E-02  0.391E-02  0.391E-02
  24.686  0.116E-01  0.386E-02  0.386E-02  0.386E-02
  24.696  0.114E-01  0.381E-02  0.381E-02  0.381E-02
  24.706  0.113E-01  0.376E-02  0.376E-02  0.376E-02
  24.716  0.111E-01  0.370E-02  0.370E-02  0.370E-02
  24.726  0.109E-01  0.363E-02  0.363E-02  0.363E-02
  24.736  0.107E-01  0.356E-02  0.356E-02  0.356E-02
  24.746  0.105E-01  0.349E-02  0.349E-02  0.349E-02
  24.756  0.102E-01  0.341E-02  0.341E-02  0.341E-02
  24.766  0.998E-02  0.333E-02  0.333E-02  0.333E-02
  24.776  0.971E-02  0.324E-02  0.324E-02  0.324E-02
  24.786  0.944E-02  0.315E-02  0.315E-02  0.315E-02
  24.796  0.916E-02  0.305E-02  0.305E-02  0.305E-02
  24.806  0.887E-02  0.296E-02  0.296E-02  0.296E-02
  24.816  0.858E-02  0.286E-02  0.286E-02  0.286E-02
  24.826  0.829E-02  0.276E-02  0.276E-02  0.276E-02
  24.836  0.800E-02  0.267E-02  0.267E-02  0.267E-02
  24.846  0.772E-02  0.257E-02  0.257E-02  0.257E-02
  24.856  0.744E-02  0.248E-02  0.248E-02  0.248E-02
  24.866  0.718E-02  0.239E-02  0.239E-02  0.239E-02
  24.876  0.693E-02  0.231E-02  0.231E-02  0.231E-02
  24.886  0.669E-02  0.223E-02  0.223E-02  0.223E-02
  24.896  0.648E-02  0.216E-02  0.216E-02  0.216E-02
  24.906  0.628E-02  0.209E-02  0.209E-02  0.209E-02
  24.916  0.609E-02  0.203E-02  0.203E-02  0.203E-02
  24.926  0.592E-02  0.197E-02  0.197E-02  0.197E-02
  24.936  0.577E-02  0.192E-02  0.192E-02  0.192E-02
  24.946  0.564E-02  0.188E-02  0.188E-02  0.188E-02
  24.956  0.551E-02  0.184E-02  0.184E-02  0.184E-02
  24.966  0.539E-02  0.180E-02  0.180E-02  0.180E-02
  24.976  0.528E-02  0.176E-02  0.176E-02  0.176E-02
  24.986  0.518E-02  0.173E-02  0.173E-02  0.173E-02
  24.996  0.508E-02  0.169E-02  0.169E-02  0.169E-02
  25.006  0.498E-02  0.166E-02  0.166E-02  0.166E-02
  25.016  0.488E-02  0.163E-02  0.163E-02  0.163E-02
  25.026  0.478E-02  0.159E-02  0.159E-02  0.159E-02
  25.036  0.468E-02  0.156E-02  0.156E-02  0.156E-02
  25.046  0.457E-02  0.152E-02  0.152E-02  0.152E-02
  25.056  0.447E-02  0.149E-02  0.149E-02  0.149E-02
  25.066  0.436E-02  0.145E-02  0.145E-02  0.145E-02
  25.076  0.426E-02  0.142E-02  0.142E-02  0.142E-02
  25.086  0.416E-02  0.139E-02  0.139E-02  0.139E-02
  25.096  0.406E-02  0.135E-02  0.135E-02  0.135E-02
  25.106  0.397E-02  0.132E-02  0.132E-02  0.132E-02
  25.116  0.389E-02  0.130E-02  0.130E-02  0.130E-02
  25.126  0.382E-02  0.127E-02  0.127E-02  0.127E-02
  25.136  0.375E-02  0.125E-02  0.125E-02  0.125E-02
  25.146  0.370E-02  0.123E-02  0.123E-02  0.123E-02
  25.156  0.366E-02  0.122E-02  0.122E-02  0.122E-02
  25.166  0.363E-02  0.121E-02  0.121E-02  0.121E-02
  25.176  0.361E-02  0.120E-02  0.120E-02  0.120E-02
  25.186  0.360E-02  0.120E-02  0.120E-02  0.120E-02
  25.196  0.359E-02  0.120E-02  0.120E-02  0.120E-02
  25.206  0.360E-02  0.120E-02  0.120E-02  0.120E-02
  25.216  0.361E-02  0.120E-02  0.120E-02  0.120E-02
  25.226  0.362E-02  0.121E-02  0.121E-02  0.121E-02
  25.236  0.365E-02  0.122E-02  0.122E-02  0.122E-02
  25.246  0.367E-02  0.122E-02  0.122E-02  0.122E-02
  25.256  0.370E-02  0.123E-02  0.123E-02  0.123E-02
  25.266  0.373E-02  0.124E-02  0.124E-02  0.124E-02
  25.276  0.376E-02  0.125E-02  0.125E-02  0.125E-02
  25.286  0.380E-02  0.127E-02  0.127E-02  0.127E-02
  25.296  0.384E-02  0.128E-02  0.128E-02  0.128E-02
  25.306  0.389E-02  0.130E-02  0.130E-02  0.130E-02
  25.316  0.394E-02  0.131E-02  0.131E-02  0.131E-02
  25.326  0.400E-02  0.133E-02  0.133E-02  0.133E-02
  25.336  0.407E-02  0.136E-02  0.136E-02  0.136E-02
  25.346  0.414E-02  0.138E-02  0.138E-02  0.138E-02
  25.356  0.421E-02  0.140E-02  0.140E-02  0.140E-02
  25.366  0.430E-02  0.143E-02  0.143E-02  0.143E-02
  25.376  0.438E-02  0.146E-02  0.146E-02  0.146E-02
  25.386  0.447E-02  0.149E-02  0.149E-02  0.149E-02
  25.396  0.455E-02  0.152E-02  0.152E-02  0.152E-02
  25.406  0.463E-02  0.154E-02  0.154E-02  0.154E-02
  25.416  0.471E-02  0.157E-02  0.157E-02  0.157E-02
  25.426  0.478E-02  0.159E-02  0.159E-02  0.159E-02
  25.436  0.484E-02  0.161E-02  0.161E-02  0.161E-02
  25.446  0.488E-02  0.163E-02  0.163E-02  0.163E-02
  25.456  0.491E-02  0.164E-02  0.164E-02  0.164E-02
  25.466  0.492E-02  0.164E-02  0.164E-02  0.164E-02
  25.476  0.492E-02  0.164E-02  0.164E-02  0.164E-02
  25.486  0.489E-02  0.163E-02  0.163E-02  0.163E-02
  25.496  0.485E-02  0.162E-02  0.162E-02  0.162E-02
  25.506  0.478E-02  0.159E-02  0.159E-02  0.159E-02
  25.516  0.470E-02  0.157E-02  0.157E-02  0.157E-02
  25.526  0.460E-02  0.153E-02  0.153E-02  0.153E-02
  25.536  0.448E-02  0.149E-02  0.149E-02  0.149E-02
  25.546  0.435E-02  0.145E-02  0.145E-02  0.145E-02
  25.556  0.420E-02  0.140E-02  0.140E-02  0.140E-02
  25.566  0.405E-02  0.135E-02  0.135E-02  0.135E-02
  25.576  0.389E-02  0.130E-02  0.130E-02  0.130E-02
  25.586  0.372E-02  0.124E-02  0.124E-02  0.124E-02
  25.596  0.356E-02  0.119E-02  0.119E-02  0.119E-02
  25.606  0.339E-02  0.113E-02  0.113E-02  0.113E-02
  25.616  0.323E-02  0.108E-02  0.108E-02  0.108E-02
  25.626  0.308E-02  0.103E-02  0.103E-02  0.103E-02
  25.636  0.293E-02  0.978E-03  0.978E-03  0.978E-03
  25.646  0.280E-02  0.932E-03  0.932E-03  0.932E-03
  25.656  0.267E-02  0.889E-03  0.889E-03  0.889E-03
  25.666  0.255E-02  0.850E-03  0.850E-03  0.850E-03
  25.676  0.244E-02  0.813E-03  0.813E-03  0.813E-03
  25.686  0.234E-02  0.780E-03  0.780E-03  0.780E-03
  25.696  0.225E-02  0.751E-03  0.751E-03  0.751E-03
  25.706  0.217E-02  0.724E-03  0.724E-03  0.724E-03
  25.716  0.210E-02  0.700E-03  0.700E-03  0.700E-03
  25.726  0.203E-02  0.678E-03  0.678E-03  0.678E-03
  25.736  0.197E-02  0.658E-03  0.658E-03  0.658E-03
  25.746  0.192E-02  0.640E-03  0.640E-03  0.640E-03
  25.756  0.187E-02  0.623E-03  0.623E-03  0.623E-03
  25.766  0.182E-02  0.607E-03  0.607E-03  0.607E-03
  25.776  0.178E-02  0.592E-03  0.592E-03  0.592E-03
  25.786  0.173E-02  0.578E-03  0.578E-03  0.578E-03
  25.796  0.169E-02  0.564E-03  0.564E-03  0.564E-03
  25.806  0.165E-02  0.551E-03  0.551E-03  0.551E-03
  25.816  0.161E-02  0.538E-03  0.538E-03  0.538E-03
  25.826  0.158E-02  0.526E-03  0.526E-03  0.526E-03
  25.836  0.154E-02  0.514E-03  0.514E-03  0.514E-03
  25.846  0.151E-02  0.503E-03  0.503E-03  0.503E-03
  25.856  0.148E-02  0.492E-03  0.492E-03  0.492E-03
  25.866  0.145E-02  0.482E-03  0.482E-03  0.482E-03
  25.876  0.142E-02  0.472E-03  0.472E-03  0.472E-03
  25.886  0.139E-02  0.464E-03  0.464E-03  0.464E-03
  25.896  0.137E-02  0.455E-03  0.455E-03  0.455E-03
  25.906  0.134E-02  0.448E-03  0.448E-03  0.448E-03
  25.916  0.132E-02  0.441E-03  0.441E-03  0.441E-03
  25.926  0.130E-02  0.434E-03  0.434E-03  0.434E-03
  25.936  0.128E-02  0.428E-03  0.428E-03  0.428E-03
  25.946  0.127E-02  0.422E-03  0.422E-03  0.422E-03
  25.956  0.125E-02  0.417E-03  0.417E-03  0.417E-03
  25.966  0.123E-02  0.411E-03  0.411E-03  0.411E-03
  25.976  0.122E-02  0.406E-03  0.406E-03  0.406E-03
  25.986  0.120E-02  0.401E-03  0.401E-03  0.401E-03
  25.996  0.119E-02  0.395E-03  0.395E-03  0.395E-03
  26.006  0.117E-02  0.390E-03  0.390E-03  0.390E-03
  26.016  0.115E-02  0.385E-03  0.385E-03  0.385E-03
  26.026  0.114E-02  0.380E-03  0.380E-03  0.380E-03
  26.036  0.112E-02  0.375E-03  0.375E-03  0.375E-03
  26.046  0.111E-02  0.370E-03  0.370E-03  0.370E-03
  26.056  0.110E-02  0.365E-03  0.365E-03  0.365E-03
  26.066  0.109E-02  0.362E-03  0.362E-03  0.362E-03
  26.076  0.108E-02  0.359E-03  0.359E-03  0.359E-03
  26.086  0.107E-02  0.357E-03  0.357E-03  0.357E-03
  26.096  0.107E-02  0.356E-03  0.356E-03  0.356E-03
  26.106  0.107E-02  0.357E-03  0.357E-03  0.357E-03
  26.116  0.108E-02  0.359E-03  0.359E-03  0.359E-03
  26.126  0.109E-02  0.363E-03  0.363E-03  0.363E-03
  26.136  0.110E-02  0.368E-03  0.368E-03  0.368E-03
  26.146  0.112E-02  0.375E-03  0.375E-03  0.375E-03
  26.156  0.115E-02  0.383E-03  0.383E-03  0.383E-03
  26.166  0.118E-02  0.393E-03  0.393E-03  0.393E-03
  26.176  0.121E-02  0.404E-03  0.404E-03  0.404E-03
  26.186  0.125E-02  0.416E-03  0.416E-03  0.416E-03
  26.196  0.129E-02  0.429E-03  0.429E-03  0.429E-03
  26.206  0.133E-02  0.442E-03  0.442E-03  0.442E-03
  26.216  0.137E-02  0.456E-03  0.456E-03  0.456E-03
  26.226  0.141E-02  0.471E-03  0.471E-03  0.471E-03
  26.236  0.145E-02  0.484E-03  0.484E-03  0.484E-03
  26.246  0.149E-02  0.498E-03  0.498E-03  0.498E-03
  26.256  0.153E-02  0.510E-03  0.510E-03  0.510E-03
  26.266  0.156E-02  0.521E-03  0.521E-03  0.521E-03
  26.276  0.159E-02  0.530E-03  0.530E-03  0.530E-03
  26.286  0.161E-02  0.538E-03  0.538E-03  0.538E-03
  26.296  0.163E-02  0.544E-03  0.544E-03  0.544E-03
  26.306  0.164E-02  0.548E-03  0.548E-03  0.548E-03
  26.316  0.165E-02  0.549E-03  0.549E-03  0.549E-03
  26.326  0.165E-02  0.548E-03  0.548E-03  0.548E-03
  26.336  0.164E-02  0.545E-03  0.545E-03  0.545E-03
  26.346  0.162E-02  0.539E-03  0.539E-03  0.539E-03
  26.356  0.159E-02  0.532E-03  0.532E-03  0.532E-03
  26.366  0.156E-02  0.521E-03  0.521E-03  0.521E-03
  26.376  0.153E-02  0.509E-03  0.509E-03  0.509E-03
  26.386  0.149E-02  0.496E-03  0.496E-03  0.496E-03
  26.396  0.144E-02  0.480E-03  0.480E-03  0.480E-03
  26.406  0.139E-02  0.463E-03  0.463E-03  0.463E-03
  26.416  0.134E-02  0.445E-03  0.445E-03  0.445E-03
  26.426  0.128E-02  0.426E-03  0.426E-03  0.426E-03
  26.436  0.122E-02  0.406E-03  0.406E-03  0.406E-03
  26.446  0.116E-02  0.386E-03  0.386E-03  0.386E-03
  26.456  0.110E-02  0.366E-03  0.366E-03  0.366E-03
  26.466  0.104E-02  0.345E-03  0.345E-03  0.345E-03
  26.476  0.973E-03  0.324E-03  0.324E-03  0.324E-03
  26.486  0.912E-03  0.304E-03  0.304E-03  0.304E-03
  26.496  0.851E-03  0.284E-03  0.284E-03  0.284E-03
  26.506  0.791E-03  0.264E-03  0.264E-03  0.264E-03
  26.516  0.732E-03  0.244E-03  0.244E-03  0.244E-03
  26.526  0.675E-03  0.225E-03  0.225E-03  0.225E-03
  26.536  0.620E-03  0.207E-03  0.207E-03  0.207E-03
  26.546  0.567E-03  0.189E-03  0.189E-03  0.189E-03
  26.556  0.516E-03  0.172E-03  0.172E-03  0.172E-03
  26.566  0.466E-03  0.155E-03  0.155E-03  0.155E-03
  26.576  0.420E-03  0.140E-03  0.140E-03  0.140E-03
  26.586  0.375E-03  0.125E-03  0.125E-03  0.125E-03
  26.596  0.334E-03  0.111E-03  0.111E-03  0.111E-03
  26.606  0.295E-03  0.983E-04  0.983E-04  0.983E-04
  26.616  0.259E-03  0.862E-04  0.862E-04  0.862E-04
  26.626  0.225E-03  0.752E-04  0.752E-04  0.752E-04
  26.636  0.195E-03  0.651E-04  0.651E-04  0.651E-04
  26.646  0.168E-03  0.559E-04  0.559E-04  0.559E-04
  26.656  0.143E-03  0.477E-04  0.477E-04  0.477E-04
  26.666  0.121E-03  0.405E-04  0.405E-04  0.405E-04
  26.676  0.102E-03  0.341E-04  0.341E-04  0.341E-04
  26.686  0.858E-04  0.286E-04  0.286E-04  0.286E-04
  26.696  0.718E-04  0.239E-04  0.239E-04  0.239E-04
  26.706  0.600E-04  0.200E-04  0.200E-04  0.200E-04
  26.716  0.504E-04  0.168E-04  0.168E-04  0.168E-04
  26.726  0.427E-04  0.142E-04  0.142E-04  0.142E-04
  26.736  0.368E-04  0.123E-04  0.123E-04  0.123E-04
  26.746  0.325E-04  0.108E-04  0.108E-04  0.108E-04
  26.756  0.297E-04  0.991E-05  0.991E-05  0.991E-05
  26.766  0.283E-04  0.945E-05  0.945E-05  0.945E-05
  26.776  0.282E-04  0.941E-05  0.941E-05  0.941E-05
  26.786  0.293E-04  0.978E-05  0.978E-05  0.978E-05
  26.796  0.316E-04  0.105E-04  0.105E-04  0.105E-04
  26.806  0.350E-04  0.117E-04  0.117E-04  0.117E-04
  26.816  0.395E-04  0.132E-04  0.132E-04  0.132E-04
  26.826  0.452E-04  0.151E-04  0.151E-04  0.151E-04
  26.836  0.521E-04  0.174E-04  0.174E-04  0.174E-04
  26.846  0.602E-04  0.201E-04  0.201E-04  0.201E-04
  26.856  0.695E-04  0.232E-04  0.232E-04  0.232E-04
  26.866  0.802E-04  0.267E-04  0.267E-04  0.267E-04
  26.876  0.923E-04  0.308E-04  0.308E-04  0.308E-04
  26.886  0.106E-03  0.352E-04  0.352E-04  0.352E-04
  26.896  0.121E-03  0.402E-04  0.402E-04  0.402E-04
  26.906  0.137E-03  0.456E-04  0.456E-04  0.456E-04
  26.916  0.154E-03  0.513E-04  0.513E-04  0.513E-04
  26.926  0.173E-03  0.575E-04  0.575E-04  0.575E-04
  26.936  0.192E-03  0.640E-04  0.640E-04  0.640E-04
  26.946  0.212E-03  0.708E-04  0.708E-04  0.708E-04
  26.956  0.233E-03  0.777E-04  0.777E-04  0.777E-04
  26.966  0.254E-03  0.848E-04  0.848E-04  0.848E-04
  26.976  0.275E-03  0.917E-04  0.917E-04  0.917E-04
  26.986  0.296E-03  0.986E-04  0.986E-04  0.986E-04
  26.996  0.315E-03  0.105E-03  0.105E-03  0.105E-03
  27.006  0.334E-03  0.111E-03  0.111E-03  0.111E-03
  27.016  0.351E-03  0.117E-03  0.117E-03  0.117E-03
  27.026  0.366E-03  0.122E-03  0.122E-03  0.122E-03
  27.036  0.379E-03  0.126E-03  0.126E-03  0.126E-03
  27.046  0.389E-03  0.130E-03  0.130E-03  0.130E-03
  27.056  0.396E-03  0.132E-03  0.132E-03  0.132E-03
  27.066  0.401E-03  0.134E-03  0.134E-03  0.134E-03
  27.076  0.403E-03  0.134E-03  0.134E-03  0.134E-03
  27.086  0.401E-03  0.134E-03  0.134E-03  0.134E-03
  27.096  0.397E-03  0.132E-03  0.132E-03  0.132E-03
  27.106  0.389E-03  0.130E-03  0.130E-03  0.130E-03
  27.116  0.379E-03  0.126E-03  0.126E-03  0.126E-03
  27.126  0.366E-03  0.122E-03  0.122E-03  0.122E-03
  27.136  0.351E-03  0.117E-03  0.117E-03  0.117E-03
  27.146  0.334E-03  0.111E-03  0.111E-03  0.111E-03
  27.156  0.315E-03  0.105E-03  0.105E-03  0.105E-03
  27.166  0.295E-03  0.984E-04  0.984E-04  0.984E-04
  27.176  0.274E-03  0.914E-04  0.914E-04  0.914E-04
  27.186  0.253E-03  0.842E-04  0.842E-04  0.842E-04
  27.196  0.231E-03  0.770E-04  0.770E-04  0.770E-04
  27.206  0.210E-03  0.699E-04  0.699E-04  0.699E-04
  27.216  0.189E-03  0.628E-04  0.628E-04  0.628E-04
  27.226  0.168E-03  0.561E-04  0.561E-04  0.561E-04
  27.236  0.149E-03  0.496E-04  0.496E-04  0.496E-04
  27.246  0.131E-03  0.435E-04  0.435E-04  0.435E-04
  27.256  0.114E-03  0.379E-04  0.379E-04  0.379E-04
  27.266  0.979E-04  0.326E-04  0.326E-04  0.326E-04
  27.276  0.837E-04  0.279E-04  0.279E-04  0.279E-04
  27.286  0.709E-04  0.236E-04  0.236E-04  0.236E-04
  27.296  0.596E-04  0.199E-04  0.199E-04  0.199E-04
  27.306  0.496E-04  0.165E-04  0.165E-04  0.165E-04
  27.316  0.409E-04  0.136E-04  0.136E-04  0.136E-04
  27.326  0.335E-04  0.112E-04  0.112E-04  0.112E-04
  27.336  0.271E-04  0.904E-05  0.904E-05  0.904E-05
  27.346  0.218E-04  0.726E-05  0.726E-05  0.726E-05
  27.356  0.173E-04  0.577E-05  0.577E-05  0.577E-05
  27.366  0.136E-04  0.455E-05  0.455E-05  0.455E-05
  27.376  0.107E-04  0.355E-05  0.355E-05  0.355E-05
  27.386  0.824E-05  0.275E-05  0.275E-05  0.275E-05
  27.396  0.632E-05  0.211E-05  0.211E-05  0.211E-05
  27.406  0.479E-05  0.160E-05  0.160E-05  0.160E-05
  27.416  0.360E-05  0.120E-05  0.120E-05  0.120E-05
  27.426  0.268E-05  0.895E-06  0.895E-06  0.895E-06
  27.436  0.198E-05  0.660E-06  0.660E-06  0.660E-06
  27.446  0.145E-05  0.482E-06  0.482E-06  0.482E-06
  27.456  0.105E-05  0.349E-06  0.349E-06  0.349E-06
  27.466  0.751E-06  0.250E-06  0.250E-06  0.250E-06
  27.476  0.533E-06  0.178E-06  0.178E-06  0.178E-06
  27.486  0.375E-06  0.125E-06  0.125E-06  0.125E-06
  27.496  0.261E-06  0.870E-07  0.870E-07  0.870E-07
  27.506  0.180E-06  0.600E-07  0.600E-07  0.600E-07
  27.516  0.123E-06  0.410E-07  0.410E-07  0.410E-07
  27.526  0.831E-07  0.277E-07  0.277E-07  0.277E-07
  27.536  0.557E-07  0.186E-07  0.186E-07  0.186E-07
  27.546  0.369E-07  0.123E-07  0.123E-07  0.123E-07
  27.556  0.243E-07  0.809E-08  0.809E-08  0.809E-08
  27.566  0.158E-07  0.526E-08  0.526E-08  0.526E-08
  27.576  0.102E-07  0.339E-08  0.339E-08  0.339E-08
  27.586  0.648E-08  0.216E-08  0.216E-08  0.216E-08
  27.596  0.409E-08  0.136E-08  0.136E-08  0.136E-08
  27.606  0.256E-08  0.853E-09  0.853E-09  0.853E-09
