#  E (eV)   dos(E)     Int dos(E) EFermi =    6.642 eV
  -9.000  0.0000E+00  0.0000E+00
  -8.990  0.0000E+00  0.0000E+00
  -8.980  0.0000E+00  0.0000E+00
  -8.970  0.0000E+00  0.0000E+00
  -8.960  0.0000E+00  0.0000E+00
  -8.950  0.0000E+00  0.0000E+00
  -8.940  0.0000E+00  0.0000E+00
  -8.930  0.0000E+00  0.0000E+00
  -8.920  0.0000E+00  0.0000E+00
  -8.910  0.0000E+00  0.0000E+00
  -8.900  0.0000E+00  0.0000E+00
  -8.890  0.0000E+00  0.0000E+00
  -8.880  0.0000E+00  0.0000E+00
  -8.870  0.0000E+00  0.0000E+00
  -8.860  0.0000E+00  0.0000E+00
  -8.850  0.0000E+00  0.0000E+00
  -8.840  0.0000E+00  0.0000E+00
  -8.830  0.0000E+00  0.0000E+00
  -8.820  0.0000E+00  0.0000E+00
  -8.810  0.0000E+00  0.0000E+00
  -8.800  0.0000E+00  0.0000E+00
  -8.790  0.0000E+00  0.0000E+00
  -8.780  0.0000E+00  0.0000E+00
  -8.770  0.0000E+00  0.0000E+00
  -8.760  0.0000E+00  0.0000E+00
  -8.750  0.0000E+00  0.0000E+00
  -8.740  0.0000E+00  0.0000E+00
  -8.730  0.0000E+00  0.0000E+00
  -8.720  0.0000E+00  0.0000E+00
  -8.710  0.0000E+00  0.0000E+00
  -8.700  0.0000E+00  0.0000E+00
  -8.690  0.0000E+00  0.0000E+00
  -8.680  0.0000E+00  0.0000E+00
  -8.670  0.0000E+00  0.0000E+00
  -8.660  0.0000E+00  0.0000E+00
  -8.650  0.0000E+00  0.0000E+00
  -8.640  0.0000E+00  0.0000E+00
  -8.630  0.0000E+00  0.0000E+00
  -8.620  0.0000E+00  0.0000E+00
  -8.610  0.0000E+00  0.0000E+00
  -8.600  0.0000E+00  0.0000E+00
  -8.590  0.0000E+00  0.0000E+00
  -8.580  0.0000E+00  0.0000E+00
  -8.570  0.0000E+00  0.0000E+00
  -8.560  0.0000E+00  0.0000E+00
  -8.550  0.0000E+00  0.0000E+00
  -8.540  0.0000E+00  0.0000E+00
  -8.530  0.0000E+00  0.0000E+00
  -8.520  0.0000E+00  0.0000E+00
  -8.510  0.0000E+00  0.0000E+00
  -8.500  0.0000E+00  0.0000E+00
  -8.490  0.0000E+00  0.0000E+00
  -8.480  0.0000E+00  0.0000E+00
  -8.470  0.0000E+00  0.0000E+00
  -8.460  0.0000E+00  0.0000E+00
  -8.450  0.0000E+00  0.0000E+00
  -8.440  0.0000E+00  0.0000E+00
  -8.430  0.0000E+00  0.0000E+00
  -8.420  0.0000E+00  0.0000E+00
  -8.410  0.0000E+00  0.0000E+00
  -8.400  0.0000E+00  0.0000E+00
  -8.390  0.0000E+00  0.0000E+00
  -8.380  0.0000E+00  0.0000E+00
  -8.370  0.0000E+00  0.0000E+00
  -8.360  0.0000E+00  0.0000E+00
  -8.350  0.0000E+00  0.0000E+00
  -8.340  0.0000E+00  0.0000E+00
  -8.330  0.0000E+00  0.0000E+00
  -8.320  0.0000E+00  0.0000E+00
  -8.310  0.0000E+00  0.0000E+00
  -8.300  0.0000E+00  0.0000E+00
  -8.290  0.0000E+00  0.0000E+00
  -8.280  0.0000E+00  0.0000E+00
  -8.270  0.0000E+00  0.0000E+00
  -8.260  0.0000E+00  0.0000E+00
  -8.250  0.0000E+00  0.0000E+00
  -8.240  0.0000E+00  0.0000E+00
  -8.230  0.0000E+00  0.0000E+00
  -8.220  0.0000E+00  0.0000E+00
  -8.210  0.0000E+00  0.0000E+00
  -8.200  0.0000E+00  0.0000E+00
  -8.190  0.0000E+00  0.0000E+00
  -8.180  0.0000E+00  0.0000E+00
  -8.170  0.0000E+00  0.0000E+00
  -8.160  0.0000E+00  0.0000E+00
  -8.150  0.0000E+00  0.0000E+00
  -8.140  0.0000E+00  0.0000E+00
  -8.130  0.0000E+00  0.0000E+00
  -8.120  0.0000E+00  0.0000E+00
  -8.110  0.0000E+00  0.0000E+00
  -8.100  0.0000E+00  0.0000E+00
  -8.090  0.0000E+00  0.0000E+00
  -8.080  0.0000E+00  0.0000E+00
  -8.070  0.0000E+00  0.0000E+00
  -8.060  0.0000E+00  0.0000E+00
  -8.050  0.0000E+00  0.0000E+00
  -8.040  0.0000E+00  0.0000E+00
  -8.030  0.0000E+00  0.0000E+00
  -8.020  0.0000E+00  0.0000E+00
  -8.010  0.0000E+00  0.0000E+00
  -8.000  0.0000E+00  0.0000E+00
  -7.990  0.0000E+00  0.0000E+00
  -7.980  0.0000E+00  0.0000E+00
  -7.970  0.0000E+00  0.0000E+00
  -7.960  0.0000E+00  0.0000E+00
  -7.950  0.0000E+00  0.0000E+00
  -7.940  0.0000E+00  0.0000E+00
  -7.930  0.0000E+00  0.0000E+00
  -7.920  0.0000E+00  0.0000E+00
  -7.910  0.0000E+00  0.0000E+00
  -7.900  0.0000E+00  0.0000E+00
  -7.890  0.0000E+00  0.0000E+00
  -7.880  0.0000E+00  0.0000E+00
  -7.870  0.0000E+00  0.0000E+00
  -7.860  0.0000E+00  0.0000E+00
  -7.850  0.0000E+00  0.0000E+00
  -7.840  0.0000E+00  0.0000E+00
  -7.830  0.0000E+00  0.0000E+00
  -7.820  0.0000E+00  0.0000E+00
  -7.810  0.0000E+00  0.0000E+00
  -7.800  0.0000E+00  0.0000E+00
  -7.790  0.0000E+00  0.0000E+00
  -7.780  0.0000E+00  0.0000E+00
  -7.770  0.0000E+00  0.0000E+00
  -7.760  0.0000E+00  0.0000E+00
  -7.750  0.0000E+00  0.0000E+00
  -7.740  0.0000E+00  0.0000E+00
  -7.730  0.0000E+00  0.0000E+00
  -7.720  0.0000E+00  0.0000E+00
  -7.710  0.0000E+00  0.0000E+00
  -7.700  0.0000E+00  0.0000E+00
  -7.690  0.0000E+00  0.0000E+00
  -7.680  0.0000E+00  0.0000E+00
  -7.670  0.0000E+00  0.0000E+00
  -7.660  0.0000E+00  0.0000E+00
  -7.650  0.0000E+00  0.0000E+00
  -7.640  0.0000E+00  0.0000E+00
  -7.630  0.0000E+00  0.0000E+00
  -7.620  0.0000E+00  0.0000E+00
  -7.610  0.0000E+00  0.0000E+00
  -7.600  0.0000E+00  0.0000E+00
  -7.590  0.0000E+00  0.0000E+00
  -7.580  0.0000E+00  0.0000E+00
  -7.570  0.0000E+00  0.0000E+00
  -7.560  0.0000E+00  0.0000E+00
  -7.550  0.0000E+00  0.0000E+00
  -7.540  0.0000E+00  0.0000E+00
  -7.530  0.0000E+00  0.0000E+00
  -7.520  0.0000E+00  0.0000E+00
  -7.510  0.0000E+00  0.0000E+00
  -7.500  0.0000E+00  0.0000E+00
  -7.490  0.0000E+00  0.0000E+00
  -7.480  0.0000E+00  0.0000E+00
  -7.470  0.0000E+00  0.0000E+00
  -7.460  0.0000E+00  0.0000E+00
  -7.450  0.0000E+00  0.0000E+00
  -7.440  0.0000E+00  0.0000E+00
  -7.430  0.0000E+00  0.0000E+00
  -7.420  0.0000E+00  0.0000E+00
  -7.410  0.0000E+00  0.0000E+00
  -7.400  0.0000E+00  0.0000E+00
  -7.390  0.0000E+00  0.0000E+00
  -7.380  0.0000E+00  0.0000E+00
  -7.370  0.0000E+00  0.0000E+00
  -7.360  0.0000E+00  0.0000E+00
  -7.350  0.0000E+00  0.0000E+00
  -7.340  0.0000E+00  0.0000E+00
  -7.330  0.0000E+00  0.0000E+00
  -7.320  0.0000E+00  0.0000E+00
  -7.310  0.0000E+00  0.0000E+00
  -7.300  0.0000E+00  0.0000E+00
  -7.290  0.0000E+00  0.0000E+00
  -7.280  0.0000E+00  0.0000E+00
  -7.270  0.0000E+00  0.0000E+00
  -7.260  0.0000E+00  0.0000E+00
  -7.250  0.0000E+00  0.0000E+00
  -7.240  0.0000E+00  0.0000E+00
  -7.230  0.0000E+00  0.0000E+00
  -7.220  0.0000E+00  0.0000E+00
  -7.210  0.0000E+00  0.0000E+00
  -7.200  0.0000E+00  0.0000E+00
  -7.190  0.0000E+00  0.0000E+00
  -7.180  0.0000E+00  0.0000E+00
  -7.170  0.0000E+00  0.0000E+00
  -7.160  0.0000E+00  0.0000E+00
  -7.150  0.0000E+00  0.0000E+00
  -7.140  0.0000E+00  0.0000E+00
  -7.130  0.0000E+00  0.0000E+00
  -7.120  0.0000E+00  0.0000E+00
  -7.110  0.0000E+00  0.0000E+00
  -7.100  0.0000E+00  0.0000E+00
  -7.090  0.0000E+00  0.0000E+00
  -7.080  0.0000E+00  0.0000E+00
  -7.070  0.0000E+00  0.0000E+00
  -7.060  0.0000E+00  0.0000E+00
  -7.050  0.0000E+00  0.0000E+00
  -7.040  0.0000E+00  0.0000E+00
  -7.030  0.0000E+00  0.0000E+00
  -7.020  0.0000E+00  0.0000E+00
  -7.010  0.0000E+00  0.0000E+00
  -7.000  0.0000E+00  0.0000E+00
  -6.990  0.0000E+00  0.0000E+00
  -6.980  0.0000E+00  0.0000E+00
  -6.970  0.0000E+00  0.0000E+00
  -6.960  0.0000E+00  0.0000E+00
  -6.950  0.0000E+00  0.0000E+00
  -6.940  0.0000E+00  0.0000E+00
  -6.930  0.0000E+00  0.0000E+00
  -6.920  0.0000E+00  0.0000E+00
  -6.910  0.0000E+00  0.0000E+00
  -6.900  0.0000E+00  0.0000E+00
  -6.890  0.0000E+00  0.0000E+00
  -6.880  0.0000E+00  0.0000E+00
  -6.870  0.0000E+00  0.0000E+00
  -6.860  0.0000E+00  0.0000E+00
  -6.850  0.0000E+00  0.0000E+00
  -6.840  0.0000E+00  0.0000E+00
  -6.830  0.0000E+00  0.0000E+00
  -6.820  0.0000E+00  0.0000E+00
  -6.810  0.0000E+00  0.0000E+00
  -6.800  0.0000E+00  0.0000E+00
  -6.790  0.0000E+00  0.0000E+00
  -6.780  0.0000E+00  0.0000E+00
  -6.770  0.0000E+00  0.0000E+00
  -6.760  0.0000E+00  0.0000E+00
  -6.750  0.0000E+00  0.0000E+00
  -6.740  0.0000E+00  0.0000E+00
  -6.730  0.0000E+00  0.0000E+00
  -6.720  0.0000E+00  0.0000E+00
  -6.710  0.0000E+00  0.0000E+00
  -6.700  0.0000E+00  0.0000E+00
  -6.690  0.0000E+00  0.0000E+00
  -6.680  0.0000E+00  0.0000E+00
  -6.670  0.0000E+00  0.0000E+00
  -6.660  0.0000E+00  0.0000E+00
  -6.650  0.0000E+00  0.0000E+00
  -6.640  0.0000E+00  0.0000E+00
  -6.630  0.0000E+00  0.0000E+00
  -6.620  0.0000E+00  0.0000E+00
  -6.610  0.0000E+00  0.0000E+00
  -6.600  0.0000E+00  0.0000E+00
  -6.590  0.0000E+00  0.0000E+00
  -6.580  0.0000E+00  0.0000E+00
  -6.570  0.0000E+00  0.0000E+00
  -6.560  0.0000E+00  0.0000E+00
  -6.550  0.0000E+00  0.0000E+00
  -6.540  0.0000E+00  0.0000E+00
  -6.530  0.0000E+00  0.0000E+00
  -6.520  0.0000E+00  0.0000E+00
  -6.510  0.0000E+00  0.0000E+00
  -6.500  0.0000E+00  0.0000E+00
  -6.490  0.0000E+00  0.0000E+00
  -6.480  0.0000E+00  0.0000E+00
  -6.470  0.0000E+00  0.0000E+00
  -6.460  0.0000E+00  0.0000E+00
  -6.450  0.0000E+00  0.0000E+00
  -6.440  0.0000E+00  0.0000E+00
  -6.430  0.0000E+00  0.0000E+00
  -6.420  0.0000E+00  0.0000E+00
  -6.410  0.0000E+00  0.0000E+00
  -6.400  0.0000E+00  0.0000E+00
  -6.390  0.0000E+00  0.0000E+00
  -6.380  0.0000E+00  0.0000E+00
  -6.370  0.0000E+00  0.0000E+00
  -6.360  0.0000E+00  0.0000E+00
  -6.350  0.0000E+00  0.0000E+00
  -6.340  0.0000E+00  0.0000E+00
  -6.330  0.0000E+00  0.0000E+00
  -6.320  0.0000E+00  0.0000E+00
  -6.310  0.0000E+00  0.0000E+00
  -6.300  0.0000E+00  0.0000E+00
  -6.290  0.0000E+00  0.0000E+00
  -6.280  0.0000E+00  0.0000E+00
  -6.270  0.0000E+00  0.0000E+00
  -6.260  0.0000E+00  0.0000E+00
  -6.250  0.0000E+00  0.0000E+00
  -6.240  0.0000E+00  0.0000E+00
  -6.230  0.0000E+00  0.0000E+00
  -6.220  0.0000E+00  0.0000E+00
  -6.210  0.0000E+00  0.0000E+00
  -6.200  0.0000E+00  0.0000E+00
  -6.190  0.0000E+00  0.0000E+00
  -6.180  0.0000E+00  0.0000E+00
  -6.170  0.0000E+00  0.0000E+00
  -6.160  0.0000E+00  0.0000E+00
  -6.150  0.0000E+00  0.0000E+00
  -6.140  0.0000E+00  0.0000E+00
  -6.130  0.0000E+00  0.0000E+00
  -6.120  0.0000E+00  0.0000E+00
  -6.110  0.0000E+00  0.0000E+00
  -6.100  0.0000E+00  0.0000E+00
  -6.090  0.0000E+00  0.0000E+00
  -6.080  0.0000E+00  0.0000E+00
  -6.070  0.0000E+00  0.0000E+00
  -6.060  0.0000E+00  0.0000E+00
  -6.050  0.0000E+00  0.0000E+00
  -6.040  0.0000E+00  0.0000E+00
  -6.030  0.0000E+00  0.0000E+00
  -6.020  0.0000E+00  0.0000E+00
  -6.010  0.0000E+00  0.0000E+00
  -6.000  0.0000E+00  0.0000E+00
  -5.990  0.0000E+00  0.0000E+00
  -5.980  0.0000E+00  0.0000E+00
  -5.970  0.0000E+00  0.0000E+00
  -5.960  0.0000E+00  0.0000E+00
  -5.950  0.0000E+00  0.0000E+00
  -5.940  0.0000E+00  0.0000E+00
  -5.930  0.0000E+00  0.0000E+00
  -5.920  0.0000E+00  0.0000E+00
  -5.910  0.0000E+00  0.0000E+00
  -5.900  0.0000E+00  0.0000E+00
  -5.890  0.0000E+00  0.0000E+00
  -5.880  0.0000E+00  0.0000E+00
  -5.870  0.0000E+00  0.0000E+00
  -5.860  0.0000E+00  0.0000E+00
  -5.850  0.0000E+00  0.0000E+00
  -5.840  0.0000E+00  0.0000E+00
  -5.830  0.0000E+00  0.0000E+00
  -5.820  0.5266E-03  0.1698E-05
  -5.810  0.2178E-02  0.1428E-04
  -5.800  0.4956E-02  0.4902E-04
  -5.790  0.8860E-02  0.1172E-03
  -5.780  0.1389E-01  0.2300E-03
  -5.770  0.2004E-01  0.3987E-03
  -5.760  0.2733E-01  0.6346E-03
  -5.750  0.3573E-01  0.9490E-03
  -5.740  0.4527E-01  0.1353E-02
  -5.730  0.1072E+00  0.2066E-02
  -5.720  0.1369E+00  0.3335E-02
  -5.710  0.1082E+00  0.4609E-02
  -5.700  0.8719E-01  0.5505E-02
  -5.690  0.9190E-01  0.6401E-02
  -5.680  0.9671E-01  0.7344E-02
  -5.670  0.1016E+00  0.8335E-02
  -5.660  0.1066E+00  0.9377E-02
  -5.650  0.1117E+00  0.1047E-01
  -5.640  0.1169E+00  0.1161E-01
  -5.630  0.1222E+00  0.1281E-01
  -5.620  0.1276E+00  0.1406E-01
  -5.610  0.1331E+00  0.1536E-01
  -5.600  0.1387E+00  0.1672E-01
  -5.590  0.1443E+00  0.1813E-01
  -5.580  0.1516E+00  0.1961E-01
  -5.570  0.1602E+00  0.2117E-01
  -5.560  0.1678E+00  0.2281E-01
  -5.550  0.1745E+00  0.2452E-01
  -5.540  0.1802E+00  0.2630E-01
  -5.530  0.1850E+00  0.2812E-01
  -5.520  0.1888E+00  0.2999E-01
  -5.510  0.1916E+00  0.3190E-01
  -5.500  0.1935E+00  0.3382E-01
  -5.490  0.1920E+00  0.3576E-01
  -5.480  0.1852E+00  0.3764E-01
  -5.470  0.1829E+00  0.3948E-01
  -5.460  0.1848E+00  0.4132E-01
  -5.450  0.1878E+00  0.4318E-01
  -5.440  0.1909E+00  0.4507E-01
  -5.430  0.1940E+00  0.4700E-01
  -5.420  0.1972E+00  0.4895E-01
  -5.410  0.2005E+00  0.5094E-01
  -5.400  0.2039E+00  0.5296E-01
  -5.390  0.2074E+00  0.5502E-01
  -5.380  0.2110E+00  0.5711E-01
  -5.370  0.2147E+00  0.5924E-01
  -5.360  0.2184E+00  0.6141E-01
  -5.350  0.2222E+00  0.6361E-01
  -5.340  0.2262E+00  0.6585E-01
  -5.330  0.2301E+00  0.6813E-01
  -5.320  0.2341E+00  0.7045E-01
  -5.310  0.2381E+00  0.7281E-01
  -5.300  0.2421E+00  0.7522E-01
  -5.290  0.2461E+00  0.7766E-01
  -5.280  0.2502E+00  0.8014E-01
  -5.270  0.2542E+00  0.8266E-01
  -5.260  0.2582E+00  0.8522E-01
  -5.250  0.2621E+00  0.8782E-01
  -5.240  0.2646E+00  0.9046E-01
  -5.230  0.2658E+00  0.9311E-01
  -5.220  0.2659E+00  0.9577E-01
  -5.210  0.2679E+00  0.9844E-01
  -5.200  0.2700E+00  0.1011E+00
  -5.190  0.2719E+00  0.1038E+00
  -5.180  0.2739E+00  0.1066E+00
  -5.170  0.2758E+00  0.1093E+00
  -5.160  0.2776E+00  0.1121E+00
  -5.150  0.2794E+00  0.1149E+00
  -5.140  0.2811E+00  0.1177E+00
  -5.130  0.2828E+00  0.1205E+00
  -5.120  0.2845E+00  0.1233E+00
  -5.110  0.2860E+00  0.1262E+00
  -5.100  0.2873E+00  0.1290E+00
  -5.090  0.2880E+00  0.1319E+00
  -5.080  0.2890E+00  0.1348E+00
  -5.070  0.2902E+00  0.1377E+00
  -5.060  0.2917E+00  0.1406E+00
  -5.050  0.2934E+00  0.1435E+00
  -5.040  0.2954E+00  0.1465E+00
  -5.030  0.2977E+00  0.1494E+00
  -5.020  0.3002E+00  0.1524E+00
  -5.010  0.3030E+00  0.1555E+00
  -5.000  0.3059E+00  0.1585E+00
  -4.990  0.3090E+00  0.1616E+00
  -4.980  0.3121E+00  0.1647E+00
  -4.970  0.3153E+00  0.1678E+00
  -4.960  0.3184E+00  0.1710E+00
  -4.950  0.3215E+00  0.1742E+00
  -4.940  0.3247E+00  0.1774E+00
  -4.930  0.3279E+00  0.1807E+00
  -4.920  0.3311E+00  0.1840E+00
  -4.910  0.3344E+00  0.1873E+00
  -4.900  0.3376E+00  0.1907E+00
  -4.890  0.3409E+00  0.1941E+00
  -4.880  0.3442E+00  0.1975E+00
  -4.870  0.3475E+00  0.2009E+00
  -4.860  0.3508E+00  0.2044E+00
  -4.850  0.3537E+00  0.2079E+00
  -4.840  0.3562E+00  0.2115E+00
  -4.830  0.3584E+00  0.2151E+00
  -4.820  0.3602E+00  0.2187E+00
  -4.810  0.3616E+00  0.2223E+00
  -4.800  0.3626E+00  0.2259E+00
  -4.790  0.3633E+00  0.2295E+00
  -4.780  0.3636E+00  0.2332E+00
  -4.770  0.3634E+00  0.2368E+00
  -4.760  0.3652E+00  0.2404E+00
  -4.750  0.3680E+00  0.2441E+00
  -4.740  0.3699E+00  0.2478E+00
  -4.730  0.3717E+00  0.2515E+00
  -4.720  0.3736E+00  0.2552E+00
  -4.710  0.3755E+00  0.2590E+00
  -4.700  0.3774E+00  0.2627E+00
  -4.690  0.3793E+00  0.2665E+00
  -4.680  0.3812E+00  0.2703E+00
  -4.670  0.3831E+00  0.2741E+00
  -4.660  0.3850E+00  0.2780E+00
  -4.650  0.3870E+00  0.2818E+00
  -4.640  0.3889E+00  0.2857E+00
  -4.630  0.3909E+00  0.2896E+00
  -4.620  0.3929E+00  0.2935E+00
  -4.610  0.3948E+00  0.2975E+00
  -4.600  0.3966E+00  0.3014E+00
  -4.590  0.3985E+00  0.3054E+00
  -4.580  0.4003E+00  0.3094E+00
  -4.570  0.4022E+00  0.3134E+00
  -4.560  0.4040E+00  0.3175E+00
  -4.550  0.4056E+00  0.3215E+00
  -4.540  0.4073E+00  0.3256E+00
  -4.530  0.4093E+00  0.3296E+00
  -4.520  0.4114E+00  0.3338E+00
  -4.510  0.4138E+00  0.3379E+00
  -4.500  0.4163E+00  0.3420E+00
  -4.490  0.4188E+00  0.3462E+00
  -4.480  0.4214E+00  0.3504E+00
  -4.470  0.4241E+00  0.3546E+00
  -4.460  0.4268E+00  0.3589E+00
  -4.450  0.4296E+00  0.3632E+00
  -4.440  0.4324E+00  0.3675E+00
  -4.430  0.4353E+00  0.3718E+00
  -4.420  0.4383E+00  0.3762E+00
  -4.410  0.4412E+00  0.3806E+00
  -4.400  0.4442E+00  0.3850E+00
  -4.390  0.4473E+00  0.3895E+00
  -4.380  0.4504E+00  0.3940E+00
  -4.370  0.4534E+00  0.3985E+00
  -4.360  0.4566E+00  0.4030E+00
  -4.350  0.4597E+00  0.4076E+00
  -4.340  0.4629E+00  0.4122E+00
  -4.330  0.4661E+00  0.4169E+00
  -4.320  0.4689E+00  0.4215E+00
  -4.310  0.4708E+00  0.4262E+00
  -4.300  0.4724E+00  0.4310E+00
  -4.290  0.4736E+00  0.4357E+00
  -4.280  0.4753E+00  0.4404E+00
  -4.270  0.4773E+00  0.4452E+00
  -4.260  0.4791E+00  0.4500E+00
  -4.250  0.4809E+00  0.4548E+00
  -4.240  0.4827E+00  0.4596E+00
  -4.230  0.4844E+00  0.4644E+00
  -4.220  0.4860E+00  0.4693E+00
  -4.210  0.4876E+00  0.4741E+00
  -4.200  0.4891E+00  0.4790E+00
  -4.190  0.4906E+00  0.4839E+00
  -4.180  0.4925E+00  0.4888E+00
  -4.170  0.4947E+00  0.4938E+00
  -4.160  0.4972E+00  0.4987E+00
  -4.150  0.4999E+00  0.5037E+00
  -4.140  0.5029E+00  0.5087E+00
  -4.130  0.5058E+00  0.5138E+00
  -4.120  0.5084E+00  0.5189E+00
  -4.110  0.5110E+00  0.5240E+00
  -4.100  0.5137E+00  0.5291E+00
  -4.090  0.5164E+00  0.5342E+00
  -4.080  0.5192E+00  0.5394E+00
  -4.070  0.5219E+00  0.5446E+00
  -4.060  0.5247E+00  0.5498E+00
  -4.050  0.5275E+00  0.5551E+00
  -4.040  0.5303E+00  0.5604E+00
  -4.030  0.5331E+00  0.5657E+00
  -4.020  0.5359E+00  0.5711E+00
  -4.010  0.5387E+00  0.5764E+00
  -4.000  0.5416E+00  0.5818E+00
  -3.990  0.5445E+00  0.5873E+00
  -3.980  0.5474E+00  0.5927E+00
  -3.970  0.5503E+00  0.5982E+00
  -3.960  0.5532E+00  0.6037E+00
  -3.950  0.5561E+00  0.6093E+00
  -3.940  0.5591E+00  0.6148E+00
  -3.930  0.5620E+00  0.6205E+00
  -3.920  0.5650E+00  0.6261E+00
  -3.910  0.5679E+00  0.6318E+00
  -3.900  0.5711E+00  0.6374E+00
  -3.890  0.5745E+00  0.6432E+00
  -3.880  0.5782E+00  0.6489E+00
  -3.870  0.5820E+00  0.6547E+00
  -3.860  0.5858E+00  0.6606E+00
  -3.850  0.5898E+00  0.6665E+00
  -3.840  0.5939E+00  0.6724E+00
  -3.830  0.5981E+00  0.6783E+00
  -3.820  0.6024E+00  0.6843E+00
  -3.810  0.6068E+00  0.6904E+00
  -3.800  0.6113E+00  0.6965E+00
  -3.790  0.6159E+00  0.7026E+00
  -3.780  0.6206E+00  0.7088E+00
  -3.770  0.6255E+00  0.7150E+00
  -3.760  0.6304E+00  0.7213E+00
  -3.750  0.6355E+00  0.7276E+00
  -3.740  0.6406E+00  0.7340E+00
  -3.730  0.6458E+00  0.7404E+00
  -3.720  0.6509E+00  0.7469E+00
  -3.710  0.6561E+00  0.7535E+00
  -3.700  0.6613E+00  0.7600E+00
  -3.690  0.6665E+00  0.7667E+00
  -3.680  0.6715E+00  0.7734E+00
  -3.670  0.6763E+00  0.7801E+00
  -3.660  0.6821E+00  0.7869E+00
  -3.650  0.6879E+00  0.7938E+00
  -3.640  0.6939E+00  0.8007E+00
  -3.630  0.7001E+00  0.8076E+00
  -3.620  0.7063E+00  0.8147E+00
  -3.610  0.7127E+00  0.8218E+00
  -3.600  0.7192E+00  0.8289E+00
  -3.590  0.7258E+00  0.8361E+00
  -3.580  0.7326E+00  0.8434E+00
  -3.570  0.7395E+00  0.8508E+00
  -3.560  0.7465E+00  0.8582E+00
  -3.550  0.7556E+00  0.8657E+00
  -3.540  0.7874E+00  0.8734E+00
  -3.530  0.8223E+00  0.8815E+00
  -3.520  0.8363E+00  0.8898E+00
  -3.510  0.8490E+00  0.8982E+00
  -3.500  0.8604E+00  0.9068E+00
  -3.490  0.8705E+00  0.9154E+00
  -3.480  0.8793E+00  0.9242E+00
  -3.470  0.8868E+00  0.9330E+00
  -3.460  0.8929E+00  0.9419E+00
  -3.450  0.8978E+00  0.9509E+00
  -3.440  0.9007E+00  0.9599E+00
  -3.430  0.8976E+00  0.9689E+00
  -3.420  0.8877E+00  0.9778E+00
  -3.410  0.8709E+00  0.9866E+00
  -3.400  0.8658E+00  0.9953E+00
  -3.390  0.8631E+00  0.1004E+01
  -3.380  0.8605E+00  0.1013E+01
  -3.370  0.8581E+00  0.1021E+01
  -3.360  0.8558E+00  0.1030E+01
  -3.350  0.8537E+00  0.1038E+01
  -3.340  0.8517E+00  0.1047E+01
  -3.330  0.8498E+00  0.1055E+01
  -3.320  0.8481E+00  0.1064E+01
  -3.310  0.8465E+00  0.1072E+01
  -3.300  0.8451E+00  0.1081E+01
  -3.290  0.8437E+00  0.1089E+01
  -3.280  0.8425E+00  0.1098E+01
  -3.270  0.8411E+00  0.1106E+01
  -3.260  0.8397E+00  0.1114E+01
  -3.250  0.8383E+00  0.1123E+01
  -3.240  0.8367E+00  0.1131E+01
  -3.230  0.8351E+00  0.1140E+01
  -3.220  0.8334E+00  0.1148E+01
  -3.210  0.8317E+00  0.1156E+01
  -3.200  0.8291E+00  0.1164E+01
  -3.190  0.8204E+00  0.1173E+01
  -3.180  0.8149E+00  0.1181E+01
  -3.170  0.8126E+00  0.1189E+01
  -3.160  0.8117E+00  0.1197E+01
  -3.150  0.8103E+00  0.1205E+01
  -3.140  0.8085E+00  0.1213E+01
  -3.130  0.8062E+00  0.1221E+01
  -3.120  0.8034E+00  0.1229E+01
  -3.110  0.8007E+00  0.1238E+01
  -3.100  0.7999E+00  0.1246E+01
  -3.090  0.8009E+00  0.1254E+01
  -3.080  0.8038E+00  0.1262E+01
  -3.070  0.8085E+00  0.1270E+01
  -3.060  0.8085E+00  0.1278E+01
  -3.050  0.8028E+00  0.1286E+01
  -3.040  0.7962E+00  0.1294E+01
  -3.030  0.7898E+00  0.1302E+01
  -3.020  0.7837E+00  0.1310E+01
  -3.010  0.7778E+00  0.1317E+01
  -3.000  0.7721E+00  0.1325E+01
  -2.990  0.7667E+00  0.1333E+01
  -2.980  0.7616E+00  0.1340E+01
  -2.970  0.7567E+00  0.1348E+01
  -2.960  0.7520E+00  0.1356E+01
  -2.950  0.7476E+00  0.1363E+01
  -2.940  0.7434E+00  0.1371E+01
  -2.930  0.7395E+00  0.1378E+01
  -2.920  0.7352E+00  0.1385E+01
  -2.910  0.7304E+00  0.1393E+01
  -2.900  0.7257E+00  0.1400E+01
  -2.890  0.7212E+00  0.1407E+01
  -2.880  0.7169E+00  0.1414E+01
  -2.870  0.7128E+00  0.1422E+01
  -2.860  0.7087E+00  0.1429E+01
  -2.850  0.7048E+00  0.1436E+01
  -2.840  0.7010E+00  0.1443E+01
  -2.830  0.6973E+00  0.1450E+01
  -2.820  0.6937E+00  0.1457E+01
  -2.810  0.6903E+00  0.1464E+01
  -2.800  0.6870E+00  0.1470E+01
  -2.790  0.6838E+00  0.1477E+01
  -2.780  0.6808E+00  0.1484E+01
  -2.770  0.6778E+00  0.1491E+01
  -2.760  0.6751E+00  0.1498E+01
  -2.750  0.6724E+00  0.1504E+01
  -2.740  0.6700E+00  0.1511E+01
  -2.730  0.6676E+00  0.1518E+01
  -2.720  0.6654E+00  0.1524E+01
  -2.710  0.6631E+00  0.1531E+01
  -2.700  0.6608E+00  0.1538E+01
  -2.690  0.6585E+00  0.1544E+01
  -2.680  0.6561E+00  0.1551E+01
  -2.670  0.6537E+00  0.1557E+01
  -2.660  0.6513E+00  0.1564E+01
  -2.650  0.6488E+00  0.1570E+01
  -2.640  0.6462E+00  0.1577E+01
  -2.630  0.6437E+00  0.1583E+01
  -2.620  0.6411E+00  0.1590E+01
  -2.610  0.6384E+00  0.1596E+01
  -2.600  0.6357E+00  0.1603E+01
  -2.590  0.6330E+00  0.1609E+01
  -2.580  0.6303E+00  0.1615E+01
  -2.570  0.6279E+00  0.1622E+01
  -2.560  0.6279E+00  0.1628E+01
  -2.550  0.6304E+00  0.1634E+01
  -2.540  0.6353E+00  0.1640E+01
  -2.530  0.6426E+00  0.1647E+01
  -2.520  0.6525E+00  0.1653E+01
  -2.510  0.6648E+00  0.1660E+01
  -2.500  0.6400E+00  0.1667E+01
  -2.490  0.6047E+00  0.1673E+01
  -2.480  0.6025E+00  0.1679E+01
  -2.470  0.6003E+00  0.1685E+01
  -2.460  0.5981E+00  0.1691E+01
  -2.450  0.5959E+00  0.1697E+01
  -2.440  0.5936E+00  0.1703E+01
  -2.430  0.5913E+00  0.1709E+01
  -2.420  0.5890E+00  0.1714E+01
  -2.410  0.5866E+00  0.1720E+01
  -2.400  0.5842E+00  0.1726E+01
  -2.390  0.5818E+00  0.1732E+01
  -2.380  0.5794E+00  0.1738E+01
  -2.370  0.5769E+00  0.1744E+01
  -2.360  0.5744E+00  0.1749E+01
  -2.350  0.5719E+00  0.1755E+01
  -2.340  0.5693E+00  0.1761E+01
  -2.330  0.5667E+00  0.1766E+01
  -2.320  0.5641E+00  0.1772E+01
  -2.310  0.5615E+00  0.1778E+01
  -2.300  0.5588E+00  0.1783E+01
  -2.290  0.5561E+00  0.1789E+01
  -2.280  0.5534E+00  0.1794E+01
  -2.270  0.5507E+00  0.1800E+01
  -2.260  0.5479E+00  0.1805E+01
  -2.250  0.5451E+00  0.1811E+01
  -2.240  0.5437E+00  0.1816E+01
  -2.230  0.5428E+00  0.1822E+01
  -2.220  0.5412E+00  0.1827E+01
  -2.210  0.5394E+00  0.1833E+01
  -2.200  0.5372E+00  0.1838E+01
  -2.190  0.5347E+00  0.1843E+01
  -2.180  0.5320E+00  0.1849E+01
  -2.170  0.5291E+00  0.1854E+01
  -2.160  0.5258E+00  0.1859E+01
  -2.150  0.5223E+00  0.1865E+01
  -2.140  0.5185E+00  0.1870E+01
  -2.130  0.5142E+00  0.1875E+01
  -2.120  0.5081E+00  0.1880E+01
  -2.110  0.5013E+00  0.1885E+01
  -2.100  0.4936E+00  0.1890E+01
  -2.090  0.4852E+00  0.1895E+01
  -2.080  0.4761E+00  0.1900E+01
  -2.070  0.4661E+00  0.1904E+01
  -2.060  0.4554E+00  0.1909E+01
  -2.050  0.4439E+00  0.1914E+01
  -2.040  0.4316E+00  0.1918E+01
  -2.030  0.4186E+00  0.1922E+01
  -2.020  0.4047E+00  0.1926E+01
  -2.010  0.3890E+00  0.1930E+01
  -2.000  0.3724E+00  0.1934E+01
  -1.990  0.3563E+00  0.1938E+01
  -1.980  0.3406E+00  0.1941E+01
  -1.970  0.3255E+00  0.1945E+01
  -1.960  0.3123E+00  0.1948E+01
  -1.950  0.3006E+00  0.1951E+01
  -1.940  0.2891E+00  0.1954E+01
  -1.930  0.2778E+00  0.1957E+01
  -1.920  0.2667E+00  0.1959E+01
  -1.910  0.2558E+00  0.1962E+01
  -1.900  0.2450E+00  0.1964E+01
  -1.890  0.2345E+00  0.1967E+01
  -1.880  0.2241E+00  0.1969E+01
  -1.870  0.2140E+00  0.1971E+01
  -1.860  0.2040E+00  0.1973E+01
  -1.850  0.1942E+00  0.1975E+01
  -1.840  0.1846E+00  0.1977E+01
  -1.830  0.1751E+00  0.1979E+01
  -1.820  0.1659E+00  0.1981E+01
  -1.810  0.1568E+00  0.1982E+01
  -1.800  0.1480E+00  0.1984E+01
  -1.790  0.1393E+00  0.1985E+01
  -1.780  0.1308E+00  0.1987E+01
  -1.770  0.1225E+00  0.1988E+01
  -1.760  0.1144E+00  0.1989E+01
  -1.750  0.1065E+00  0.1990E+01
  -1.740  0.9886E-01  0.1991E+01
  -1.730  0.9150E-01  0.1992E+01
  -1.720  0.8442E-01  0.1993E+01
  -1.710  0.7760E-01  0.1994E+01
  -1.700  0.7106E-01  0.1995E+01
  -1.690  0.6478E-01  0.1995E+01
  -1.680  0.5878E-01  0.1996E+01
  -1.670  0.5305E-01  0.1997E+01
  -1.660  0.4759E-01  0.1997E+01
  -1.650  0.4239E-01  0.1997E+01
  -1.640  0.3747E-01  0.1998E+01
  -1.630  0.3282E-01  0.1998E+01
  -1.620  0.2848E-01  0.1999E+01
  -1.610  0.2460E-01  0.1999E+01
  -1.600  0.2119E-01  0.1999E+01
  -1.590  0.1826E-01  0.1999E+01
  -1.580  0.1626E-01  0.1999E+01
  -1.570  0.1507E-01  0.2000E+01
  -1.560  0.1419E-01  0.2000E+01
  -1.550  0.1364E-01  0.2000E+01
  -1.540  0.1342E-01  0.2000E+01
  -1.530  0.1352E-01  0.2000E+01
  -1.520  0.1394E-01  0.2000E+01
  -1.510  0.1469E-01  0.2000E+01
  -1.500  0.1576E-01  0.2001E+01
  -1.490  0.1720E-01  0.2001E+01
  -1.480  0.1915E-01  0.2001E+01
  -1.470  0.2162E-01  0.2001E+01
  -1.460  0.2460E-01  0.2001E+01
  -1.450  0.2810E-01  0.2002E+01
  -1.440  0.3203E-01  0.2002E+01
  -1.430  0.3625E-01  0.2002E+01
  -1.420  0.4074E-01  0.2003E+01
  -1.410  0.4553E-01  0.2003E+01
  -1.400  0.5059E-01  0.2004E+01
  -1.390  0.5595E-01  0.2004E+01
  -1.380  0.6158E-01  0.2005E+01
  -1.370  0.6751E-01  0.2005E+01
  -1.360  0.7371E-01  0.2006E+01
  -1.350  0.8010E-01  0.2007E+01
  -1.340  0.8664E-01  0.2008E+01
  -1.330  0.9333E-01  0.2008E+01
  -1.320  0.1002E+00  0.2009E+01
  -1.310  0.1072E+00  0.2010E+01
  -1.300  0.1143E+00  0.2012E+01
  -1.290  0.1216E+00  0.2013E+01
  -1.280  0.1290E+00  0.2014E+01
  -1.270  0.1366E+00  0.2015E+01
  -1.260  0.1443E+00  0.2017E+01
  -1.250  0.1522E+00  0.2018E+01
  -1.240  0.1602E+00  0.2020E+01
  -1.230  0.1684E+00  0.2021E+01
  -1.220  0.1767E+00  0.2023E+01
  -1.210  0.1852E+00  0.2025E+01
  -1.200  0.1938E+00  0.2027E+01
  -1.190  0.2026E+00  0.2029E+01
  -1.180  0.2115E+00  0.2031E+01
  -1.170  0.2206E+00  0.2033E+01
  -1.160  0.2298E+00  0.2035E+01
  -1.150  0.2392E+00  0.2038E+01
  -1.140  0.2487E+00  0.2040E+01
  -1.130  0.2584E+00  0.2043E+01
  -1.120  0.2682E+00  0.2045E+01
  -1.110  0.2782E+00  0.2048E+01
  -1.100  0.2883E+00  0.2051E+01
  -1.090  0.2985E+00  0.2054E+01
  -1.080  0.3089E+00  0.2057E+01
  -1.070  0.3195E+00  0.2060E+01
  -1.060  0.3302E+00  0.2063E+01
  -1.050  0.3455E+00  0.2067E+01
  -1.040  0.3613E+00  0.2070E+01
  -1.030  0.3770E+00  0.2074E+01
  -1.020  0.3927E+00  0.2078E+01
  -1.010  0.4084E+00  0.2082E+01
  -1.000  0.4241E+00  0.2086E+01
  -0.990  0.4398E+00  0.2090E+01
  -0.980  0.4555E+00  0.2095E+01
  -0.970  0.4711E+00  0.2099E+01
  -0.960  0.4868E+00  0.2104E+01
  -0.950  0.5024E+00  0.2109E+01
  -0.940  0.5164E+00  0.2114E+01
  -0.930  0.5263E+00  0.2119E+01
  -0.920  0.5357E+00  0.2125E+01
  -0.910  0.5448E+00  0.2130E+01
  -0.900  0.5536E+00  0.2136E+01
  -0.890  0.5621E+00  0.2141E+01
  -0.880  0.5703E+00  0.2147E+01
  -0.870  0.5782E+00  0.2153E+01
  -0.860  0.5856E+00  0.2158E+01
  -0.850  0.5921E+00  0.2164E+01
  -0.840  0.5990E+00  0.2170E+01
  -0.830  0.6075E+00  0.2176E+01
  -0.820  0.6179E+00  0.2182E+01
  -0.810  0.6304E+00  0.2189E+01
  -0.800  0.6449E+00  0.2195E+01
  -0.790  0.6614E+00  0.2201E+01
  -0.780  0.6800E+00  0.2208E+01
  -0.770  0.7006E+00  0.2215E+01
  -0.760  0.7232E+00  0.2222E+01
  -0.750  0.7478E+00  0.2230E+01
  -0.740  0.7744E+00  0.2237E+01
  -0.730  0.8464E+00  0.2245E+01
  -0.720  0.8783E+00  0.2254E+01
  -0.710  0.8962E+00  0.2263E+01
  -0.700  0.9391E+00  0.2272E+01
  -0.690  0.9860E+00  0.2282E+01
  -0.680  0.1037E+01  0.2292E+01
  -0.670  0.1092E+01  0.2302E+01
  -0.660  0.1151E+01  0.2313E+01
  -0.650  0.1217E+01  0.2325E+01
  -0.640  0.1301E+01  0.2338E+01
  -0.630  0.1400E+01  0.2351E+01
  -0.620  0.1518E+01  0.2366E+01
  -0.610  0.1554E+01  0.2381E+01
  -0.600  0.1555E+01  0.2397E+01
  -0.590  0.1553E+01  0.2413E+01
  -0.580  0.1546E+01  0.2428E+01
  -0.570  0.1528E+01  0.2443E+01
  -0.560  0.1500E+01  0.2459E+01
  -0.550  0.1473E+01  0.2473E+01
  -0.540  0.1455E+01  0.2488E+01
  -0.530  0.1440E+01  0.2503E+01
  -0.520  0.1423E+01  0.2517E+01
  -0.510  0.1406E+01  0.2531E+01
  -0.500  0.1387E+01  0.2545E+01
  -0.490  0.1368E+01  0.2559E+01
  -0.480  0.1348E+01  0.2572E+01
  -0.470  0.1326E+01  0.2586E+01
  -0.460  0.1304E+01  0.2599E+01
  -0.450  0.1280E+01  0.2612E+01
  -0.440  0.1257E+01  0.2624E+01
  -0.430  0.1233E+01  0.2637E+01
  -0.420  0.1209E+01  0.2649E+01
  -0.410  0.1184E+01  0.2661E+01
  -0.400  0.1160E+01  0.2673E+01
  -0.390  0.1136E+01  0.2684E+01
  -0.380  0.1111E+01  0.2695E+01
  -0.370  0.1085E+01  0.2706E+01
  -0.360  0.1060E+01  0.2717E+01
  -0.350  0.1036E+01  0.2728E+01
  -0.340  0.1012E+01  0.2738E+01
  -0.330  0.9898E+00  0.2748E+01
  -0.320  0.9684E+00  0.2758E+01
  -0.310  0.9480E+00  0.2767E+01
  -0.300  0.9286E+00  0.2777E+01
  -0.290  0.9101E+00  0.2786E+01
  -0.280  0.8926E+00  0.2795E+01
  -0.270  0.8760E+00  0.2804E+01
  -0.260  0.8603E+00  0.2812E+01
  -0.250  0.8457E+00  0.2821E+01
  -0.240  0.8319E+00  0.2829E+01
  -0.230  0.8192E+00  0.2838E+01
  -0.220  0.8074E+00  0.2846E+01
  -0.210  0.7967E+00  0.2854E+01
  -0.200  0.7871E+00  0.2862E+01
  -0.190  0.7782E+00  0.2869E+01
  -0.180  0.7695E+00  0.2877E+01
  -0.170  0.7609E+00  0.2885E+01
  -0.160  0.7525E+00  0.2892E+01
  -0.150  0.7442E+00  0.2900E+01
  -0.140  0.7360E+00  0.2907E+01
  -0.130  0.7280E+00  0.2915E+01
  -0.120  0.7201E+00  0.2922E+01
  -0.110  0.7130E+00  0.2929E+01
  -0.100  0.7062E+00  0.2936E+01
  -0.090  0.6994E+00  0.2943E+01
  -0.080  0.6927E+00  0.2950E+01
  -0.070  0.6860E+00  0.2957E+01
  -0.060  0.6794E+00  0.2964E+01
  -0.050  0.6727E+00  0.2971E+01
  -0.040  0.6662E+00  0.2977E+01
  -0.030  0.6596E+00  0.2984E+01
  -0.020  0.6531E+00  0.2990E+01
  -0.010  0.6466E+00  0.2997E+01
   0.000  0.6401E+00  0.3003E+01
   0.010  0.6338E+00  0.3010E+01
   0.020  0.6276E+00  0.3016E+01
   0.030  0.6215E+00  0.3022E+01
   0.040  0.6156E+00  0.3029E+01
   0.050  0.6098E+00  0.3035E+01
   0.060  0.6042E+00  0.3041E+01
   0.070  0.5987E+00  0.3047E+01
   0.080  0.5933E+00  0.3053E+01
   0.090  0.5881E+00  0.3059E+01
   0.100  0.5829E+00  0.3064E+01
   0.110  0.5780E+00  0.3070E+01
   0.120  0.5731E+00  0.3076E+01
   0.130  0.5684E+00  0.3082E+01
   0.140  0.5638E+00  0.3087E+01
   0.150  0.5593E+00  0.3093E+01
   0.160  0.5550E+00  0.3099E+01
   0.170  0.5507E+00  0.3104E+01
   0.180  0.5464E+00  0.3110E+01
   0.190  0.5421E+00  0.3115E+01
   0.200  0.5384E+00  0.3120E+01
   0.210  0.5348E+00  0.3126E+01
   0.220  0.5312E+00  0.3131E+01
   0.230  0.5276E+00  0.3136E+01
   0.240  0.5241E+00  0.3142E+01
   0.250  0.5206E+00  0.3147E+01
   0.260  0.5171E+00  0.3152E+01
   0.270  0.5136E+00  0.3157E+01
   0.280  0.5102E+00  0.3162E+01
   0.290  0.5068E+00  0.3167E+01
   0.300  0.5035E+00  0.3173E+01
   0.310  0.5001E+00  0.3178E+01
   0.320  0.4968E+00  0.3183E+01
   0.330  0.4935E+00  0.3187E+01
   0.340  0.4902E+00  0.3192E+01
   0.350  0.4870E+00  0.3197E+01
   0.360  0.4838E+00  0.3202E+01
   0.370  0.4806E+00  0.3207E+01
   0.380  0.4775E+00  0.3212E+01
   0.390  0.4744E+00  0.3216E+01
   0.400  0.4713E+00  0.3221E+01
   0.410  0.4682E+00  0.3226E+01
   0.420  0.4652E+00  0.3231E+01
   0.430  0.4622E+00  0.3235E+01
   0.440  0.4592E+00  0.3240E+01
   0.450  0.4562E+00  0.3244E+01
   0.460  0.4533E+00  0.3249E+01
   0.470  0.4503E+00  0.3253E+01
   0.480  0.4474E+00  0.3258E+01
   0.490  0.4446E+00  0.3262E+01
   0.500  0.4417E+00  0.3267E+01
   0.510  0.4388E+00  0.3271E+01
   0.520  0.4359E+00  0.3276E+01
   0.530  0.4341E+00  0.3280E+01
   0.540  0.4329E+00  0.3284E+01
   0.550  0.4314E+00  0.3289E+01
   0.560  0.4296E+00  0.3293E+01
   0.570  0.4273E+00  0.3297E+01
   0.580  0.4250E+00  0.3301E+01
   0.590  0.4227E+00  0.3306E+01
   0.600  0.4203E+00  0.3310E+01
   0.610  0.4179E+00  0.3314E+01
   0.620  0.4155E+00  0.3318E+01
   0.630  0.4131E+00  0.3322E+01
   0.640  0.4106E+00  0.3327E+01
   0.650  0.4081E+00  0.3331E+01
   0.660  0.4056E+00  0.3335E+01
   0.670  0.4031E+00  0.3339E+01
   0.680  0.4006E+00  0.3343E+01
   0.690  0.3980E+00  0.3347E+01
   0.700  0.3954E+00  0.3351E+01
   0.710  0.3928E+00  0.3355E+01
   0.720  0.3902E+00  0.3359E+01
   0.730  0.3876E+00  0.3362E+01
   0.740  0.3850E+00  0.3366E+01
   0.750  0.3825E+00  0.3370E+01
   0.760  0.3800E+00  0.3374E+01
   0.770  0.3775E+00  0.3378E+01
   0.780  0.3751E+00  0.3382E+01
   0.790  0.3727E+00  0.3385E+01
   0.800  0.3704E+00  0.3389E+01
   0.810  0.3680E+00  0.3393E+01
   0.820  0.3657E+00  0.3396E+01
   0.830  0.3635E+00  0.3400E+01
   0.840  0.3612E+00  0.3404E+01
   0.850  0.3590E+00  0.3407E+01
   0.860  0.3569E+00  0.3411E+01
   0.870  0.3547E+00  0.3414E+01
   0.880  0.3526E+00  0.3418E+01
   0.890  0.3506E+00  0.3421E+01
   0.900  0.3485E+00  0.3425E+01
   0.910  0.3465E+00  0.3428E+01
   0.920  0.3445E+00  0.3432E+01
   0.930  0.3426E+00  0.3435E+01
   0.940  0.3406E+00  0.3439E+01
   0.950  0.3386E+00  0.3442E+01
   0.960  0.3367E+00  0.3445E+01
   0.970  0.3348E+00  0.3449E+01
   0.980  0.3328E+00  0.3452E+01
   0.990  0.3309E+00  0.3455E+01
   1.000  0.3290E+00  0.3459E+01
   1.010  0.3272E+00  0.3462E+01
   1.020  0.3253E+00  0.3465E+01
   1.030  0.3234E+00  0.3469E+01
   1.040  0.3216E+00  0.3472E+01
   1.050  0.3197E+00  0.3475E+01
   1.060  0.3179E+00  0.3478E+01
   1.070  0.3161E+00  0.3481E+01
   1.080  0.3143E+00  0.3485E+01
   1.090  0.3125E+00  0.3488E+01
   1.100  0.3108E+00  0.3491E+01
   1.110  0.3091E+00  0.3494E+01
   1.120  0.3074E+00  0.3497E+01
   1.130  0.3057E+00  0.3500E+01
   1.140  0.3041E+00  0.3503E+01
   1.150  0.3025E+00  0.3506E+01
   1.160  0.3009E+00  0.3509E+01
   1.170  0.2993E+00  0.3512E+01
   1.180  0.2978E+00  0.3515E+01
   1.190  0.2963E+00  0.3518E+01
   1.200  0.2948E+00  0.3521E+01
   1.210  0.2934E+00  0.3524E+01
   1.220  0.2920E+00  0.3527E+01
   1.230  0.2906E+00  0.3530E+01
   1.240  0.2892E+00  0.3533E+01
   1.250  0.2880E+00  0.3536E+01
   1.260  0.2867E+00  0.3538E+01
   1.270  0.2854E+00  0.3541E+01
   1.280  0.2842E+00  0.3544E+01
   1.290  0.2829E+00  0.3547E+01
   1.300  0.2816E+00  0.3550E+01
   1.310  0.2803E+00  0.3553E+01
   1.320  0.2790E+00  0.3555E+01
   1.330  0.2777E+00  0.3558E+01
   1.340  0.2767E+00  0.3561E+01
   1.350  0.2758E+00  0.3564E+01
   1.360  0.2748E+00  0.3567E+01
   1.370  0.2738E+00  0.3569E+01
   1.380  0.2728E+00  0.3572E+01
   1.390  0.2717E+00  0.3575E+01
   1.400  0.2706E+00  0.3577E+01
   1.410  0.2695E+00  0.3580E+01
   1.420  0.2683E+00  0.3583E+01
   1.430  0.2671E+00  0.3585E+01
   1.440  0.2659E+00  0.3588E+01
   1.450  0.2646E+00  0.3591E+01
   1.460  0.2633E+00  0.3593E+01
   1.470  0.2620E+00  0.3596E+01
   1.480  0.2606E+00  0.3599E+01
   1.490  0.2592E+00  0.3601E+01
   1.500  0.2578E+00  0.3604E+01
   1.510  0.2563E+00  0.3606E+01
   1.520  0.2548E+00  0.3609E+01
   1.530  0.2531E+00  0.3612E+01
   1.540  0.2514E+00  0.3614E+01
   1.550  0.2497E+00  0.3617E+01
   1.560  0.2481E+00  0.3619E+01
   1.570  0.2465E+00  0.3622E+01
   1.580  0.2448E+00  0.3624E+01
   1.590  0.2432E+00  0.3626E+01
   1.600  0.2416E+00  0.3629E+01
   1.610  0.2401E+00  0.3631E+01
   1.620  0.2385E+00  0.3634E+01
   1.630  0.2370E+00  0.3636E+01
   1.640  0.2355E+00  0.3638E+01
   1.650  0.2339E+00  0.3641E+01
   1.660  0.2325E+00  0.3643E+01
   1.670  0.2310E+00  0.3645E+01
   1.680  0.2295E+00  0.3648E+01
   1.690  0.2281E+00  0.3650E+01
   1.700  0.2270E+00  0.3652E+01
   1.710  0.2271E+00  0.3655E+01
   1.720  0.2285E+00  0.3657E+01
   1.730  0.2313E+00  0.3659E+01
   1.740  0.2354E+00  0.3661E+01
   1.750  0.2408E+00  0.3664E+01
   1.760  0.2475E+00  0.3666E+01
   1.770  0.2555E+00  0.3669E+01
   1.780  0.2649E+00  0.3671E+01
   1.790  0.2755E+00  0.3674E+01
   1.800  0.2876E+00  0.3677E+01
   1.810  0.3011E+00  0.3680E+01
   1.820  0.3160E+00  0.3683E+01
   1.830  0.3322E+00  0.3686E+01
   1.840  0.3496E+00  0.3690E+01
   1.850  0.3684E+00  0.3693E+01
   1.860  0.4110E+00  0.3697E+01
   1.870  0.5240E+00  0.3702E+01
   1.880  0.6146E+00  0.3707E+01
   1.890  0.6807E+00  0.3714E+01
   1.900  0.7211E+00  0.3721E+01
   1.910  0.7688E+00  0.3728E+01
   1.920  0.8179E+00  0.3736E+01
   1.930  0.8644E+00  0.3745E+01
   1.940  0.9083E+00  0.3754E+01
   1.950  0.9495E+00  0.3763E+01
   1.960  0.9882E+00  0.3773E+01
   1.970  0.1022E+01  0.3783E+01
   1.980  0.1050E+01  0.3793E+01
   1.990  0.1079E+01  0.3804E+01
   2.000  0.1106E+01  0.3815E+01
   2.010  0.1133E+01  0.3826E+01
   2.020  0.1158E+01  0.3837E+01
   2.030  0.1184E+01  0.3849E+01
   2.040  0.1195E+01  0.3861E+01
   2.050  0.1203E+01  0.3873E+01
   2.060  0.1210E+01  0.3885E+01
   2.070  0.1216E+01  0.3897E+01
   2.080  0.1220E+01  0.3909E+01
   2.090  0.1223E+01  0.3921E+01
   2.100  0.1224E+01  0.3934E+01
   2.110  0.1224E+01  0.3946E+01
   2.120  0.1219E+01  0.3958E+01
   2.130  0.1212E+01  0.3970E+01
   2.140  0.1205E+01  0.3982E+01
   2.150  0.1197E+01  0.3994E+01
   2.160  0.1188E+01  0.4006E+01
   2.170  0.1179E+01  0.4018E+01
   2.180  0.1169E+01  0.4030E+01
   2.190  0.1160E+01  0.4041E+01
   2.200  0.1150E+01  0.4053E+01
   2.210  0.1142E+01  0.4064E+01
   2.220  0.1133E+01  0.4076E+01
   2.230  0.1126E+01  0.4087E+01
   2.240  0.1122E+01  0.4098E+01
   2.250  0.1119E+01  0.4110E+01
   2.260  0.1115E+01  0.4121E+01
   2.270  0.1113E+01  0.4132E+01
   2.280  0.1110E+01  0.4143E+01
   2.290  0.1107E+01  0.4154E+01
   2.300  0.1105E+01  0.4165E+01
   2.310  0.1103E+01  0.4176E+01
   2.320  0.1101E+01  0.4187E+01
   2.330  0.1099E+01  0.4198E+01
   2.340  0.1098E+01  0.4209E+01
   2.350  0.1096E+01  0.4220E+01
   2.360  0.1096E+01  0.4231E+01
   2.370  0.1116E+01  0.4242E+01
   2.380  0.1117E+01  0.4253E+01
   2.390  0.1101E+01  0.4264E+01
   2.400  0.1086E+01  0.4275E+01
   2.410  0.1073E+01  0.4286E+01
   2.420  0.1061E+01  0.4297E+01
   2.430  0.1051E+01  0.4307E+01
   2.440  0.1042E+01  0.4318E+01
   2.450  0.1035E+01  0.4328E+01
   2.460  0.1029E+01  0.4339E+01
   2.470  0.1025E+01  0.4349E+01
   2.480  0.1023E+01  0.4359E+01
   2.490  0.1021E+01  0.4369E+01
   2.500  0.1019E+01  0.4380E+01
   2.510  0.1018E+01  0.4390E+01
   2.520  0.1016E+01  0.4400E+01
   2.530  0.1015E+01  0.4410E+01
   2.540  0.1014E+01  0.4420E+01
   2.550  0.1014E+01  0.4430E+01
   2.560  0.1013E+01  0.4440E+01
   2.570  0.1021E+01  0.4451E+01
   2.580  0.1028E+01  0.4461E+01
   2.590  0.1030E+01  0.4471E+01
   2.600  0.1027E+01  0.4481E+01
   2.610  0.1021E+01  0.4492E+01
   2.620  0.1010E+01  0.4502E+01
   2.630  0.9980E+00  0.4512E+01
   2.640  0.9961E+00  0.4522E+01
   2.650  0.9952E+00  0.4532E+01
   2.660  0.9952E+00  0.4542E+01
   2.670  0.9961E+00  0.4552E+01
   2.680  0.9981E+00  0.4562E+01
   2.690  0.1001E+01  0.4572E+01
   2.700  0.1004E+01  0.4582E+01
   2.710  0.1006E+01  0.4592E+01
   2.720  0.1007E+01  0.4602E+01
   2.730  0.1008E+01  0.4612E+01
   2.740  0.1010E+01  0.4622E+01
   2.750  0.1012E+01  0.4632E+01
   2.760  0.1014E+01  0.4642E+01
   2.770  0.1017E+01  0.4652E+01
   2.780  0.1019E+01  0.4663E+01
   2.790  0.1022E+01  0.4673E+01
   2.800  0.1026E+01  0.4683E+01
   2.810  0.1029E+01  0.4693E+01
   2.820  0.1033E+01  0.4704E+01
   2.830  0.1038E+01  0.4714E+01
   2.840  0.1041E+01  0.4724E+01
   2.850  0.1045E+01  0.4735E+01
   2.860  0.1049E+01  0.4745E+01
   2.870  0.1053E+01  0.4756E+01
   2.880  0.1057E+01  0.4766E+01
   2.890  0.1062E+01  0.4777E+01
   2.900  0.1066E+01  0.4788E+01
   2.910  0.1071E+01  0.4798E+01
   2.920  0.1076E+01  0.4809E+01
   2.930  0.1081E+01  0.4820E+01
   2.940  0.1086E+01  0.4831E+01
   2.950  0.1092E+01  0.4841E+01
   2.960  0.1098E+01  0.4852E+01
   2.970  0.1103E+01  0.4863E+01
   2.980  0.1311E+01  0.4875E+01
   2.990  0.1188E+01  0.4888E+01
   3.000  0.1189E+01  0.4900E+01
   3.010  0.1187E+01  0.4912E+01
   3.020  0.1183E+01  0.4924E+01
   3.030  0.1183E+01  0.4936E+01
   3.040  0.1189E+01  0.4947E+01
   3.050  0.1194E+01  0.4959E+01
   3.060  0.1200E+01  0.4971E+01
   3.070  0.1207E+01  0.4983E+01
   3.080  0.1215E+01  0.4995E+01
   3.090  0.1223E+01  0.5008E+01
   3.100  0.1232E+01  0.5020E+01
   3.110  0.1241E+01  0.5032E+01
   3.120  0.1250E+01  0.5045E+01
   3.130  0.1259E+01  0.5057E+01
   3.140  0.1269E+01  0.5070E+01
   3.150  0.1278E+01  0.5083E+01
   3.160  0.1288E+01  0.5095E+01
   3.170  0.1298E+01  0.5108E+01
   3.180  0.1308E+01  0.5121E+01
   3.190  0.1321E+01  0.5135E+01
   3.200  0.1336E+01  0.5148E+01
   3.210  0.1353E+01  0.5161E+01
   3.220  0.1371E+01  0.5175E+01
   3.230  0.1388E+01  0.5189E+01
   3.240  0.1403E+01  0.5203E+01
   3.250  0.1420E+01  0.5217E+01
   3.260  0.1453E+01  0.5231E+01
   3.270  0.1483E+01  0.5246E+01
   3.280  0.1509E+01  0.5261E+01
   3.290  0.1528E+01  0.5276E+01
   3.300  0.1526E+01  0.5291E+01
   3.310  0.1513E+01  0.5306E+01
   3.320  0.1510E+01  0.5322E+01
   3.330  0.1519E+01  0.5337E+01
   3.340  0.1527E+01  0.5352E+01
   3.350  0.1532E+01  0.5367E+01
   3.360  0.1536E+01  0.5383E+01
   3.370  0.1539E+01  0.5398E+01
   3.380  0.1540E+01  0.5413E+01
   3.390  0.1530E+01  0.5429E+01
   3.400  0.1506E+01  0.5444E+01
   3.410  0.1490E+01  0.5459E+01
   3.420  0.1483E+01  0.5474E+01
   3.430  0.1480E+01  0.5489E+01
   3.440  0.1479E+01  0.5503E+01
   3.450  0.1477E+01  0.5518E+01
   3.460  0.1476E+01  0.5533E+01
   3.470  0.1476E+01  0.5548E+01
   3.480  0.1477E+01  0.5562E+01
   3.490  0.1478E+01  0.5577E+01
   3.500  0.1480E+01  0.5592E+01
   3.510  0.1482E+01  0.5607E+01
   3.520  0.1485E+01  0.5622E+01
   3.530  0.1498E+01  0.5637E+01
   3.540  0.1538E+01  0.5652E+01
   3.550  0.1535E+01  0.5667E+01
   3.560  0.1532E+01  0.5682E+01
   3.570  0.1529E+01  0.5698E+01
   3.580  0.1524E+01  0.5713E+01
   3.590  0.1517E+01  0.5728E+01
   3.600  0.1509E+01  0.5743E+01
   3.610  0.1503E+01  0.5758E+01
   3.620  0.1495E+01  0.5773E+01
   3.630  0.1487E+01  0.5788E+01
   3.640  0.1479E+01  0.5803E+01
   3.650  0.1472E+01  0.5818E+01
   3.660  0.1465E+01  0.5833E+01
   3.670  0.1459E+01  0.5847E+01
   3.680  0.1453E+01  0.5862E+01
   3.690  0.1448E+01  0.5876E+01
   3.700  0.1443E+01  0.5891E+01
   3.710  0.1438E+01  0.5905E+01
   3.720  0.1435E+01  0.5920E+01
   3.730  0.1431E+01  0.5934E+01
   3.740  0.1420E+01  0.5948E+01
   3.750  0.1414E+01  0.5962E+01
   3.760  0.1413E+01  0.5976E+01
   3.770  0.1415E+01  0.5991E+01
   3.780  0.1420E+01  0.6005E+01
   3.790  0.1428E+01  0.6019E+01
   3.800  0.1437E+01  0.6033E+01
   3.810  0.1448E+01  0.6048E+01
   3.820  0.1464E+01  0.6062E+01
   3.830  0.1424E+01  0.6077E+01
   3.840  0.1398E+01  0.6091E+01
   3.850  0.1394E+01  0.6105E+01
   3.860  0.1389E+01  0.6119E+01
   3.870  0.1385E+01  0.6133E+01
   3.880  0.1381E+01  0.6146E+01
   3.890  0.1376E+01  0.6160E+01
   3.900  0.1372E+01  0.6174E+01
   3.910  0.1368E+01  0.6188E+01
   3.920  0.1364E+01  0.6201E+01
   3.930  0.1359E+01  0.6215E+01
   3.940  0.1355E+01  0.6228E+01
   3.950  0.1351E+01  0.6242E+01
   3.960  0.1348E+01  0.6255E+01
   3.970  0.1345E+01  0.6269E+01
   3.980  0.1343E+01  0.6282E+01
   3.990  0.1343E+01  0.6296E+01
   4.000  0.1344E+01  0.6309E+01
   4.010  0.1348E+01  0.6323E+01
   4.020  0.1354E+01  0.6336E+01
   4.030  0.1373E+01  0.6350E+01
   4.040  0.1372E+01  0.6364E+01
   4.050  0.1360E+01  0.6377E+01
   4.060  0.1354E+01  0.6391E+01
   4.070  0.1349E+01  0.6404E+01
   4.080  0.1344E+01  0.6418E+01
   4.090  0.1339E+01  0.6431E+01
   4.100  0.1335E+01  0.6445E+01
   4.110  0.1331E+01  0.6458E+01
   4.120  0.1328E+01  0.6471E+01
   4.130  0.1325E+01  0.6484E+01
   4.140  0.1322E+01  0.6498E+01
   4.150  0.1320E+01  0.6511E+01
   4.160  0.1318E+01  0.6524E+01
   4.170  0.1316E+01  0.6537E+01
   4.180  0.1315E+01  0.6550E+01
   4.190  0.1314E+01  0.6564E+01
   4.200  0.1313E+01  0.6577E+01
   4.210  0.1311E+01  0.6590E+01
   4.220  0.1309E+01  0.6603E+01
   4.230  0.1307E+01  0.6616E+01
   4.240  0.1305E+01  0.6629E+01
   4.250  0.1303E+01  0.6642E+01
   4.260  0.1302E+01  0.6655E+01
   4.270  0.1300E+01  0.6668E+01
   4.280  0.1299E+01  0.6681E+01
   4.290  0.1296E+01  0.6694E+01
   4.300  0.1293E+01  0.6707E+01
   4.310  0.1297E+01  0.6720E+01
   4.320  0.1326E+01  0.6733E+01
   4.330  0.1346E+01  0.6746E+01
   4.340  0.1352E+01  0.6760E+01
   4.350  0.1352E+01  0.6774E+01
   4.360  0.1348E+01  0.6787E+01
   4.370  0.1341E+01  0.6800E+01
   4.380  0.1331E+01  0.6814E+01
   4.390  0.1317E+01  0.6827E+01
   4.400  0.1299E+01  0.6840E+01
   4.410  0.1285E+01  0.6853E+01
   4.420  0.1281E+01  0.6866E+01
   4.430  0.1277E+01  0.6879E+01
   4.440  0.1273E+01  0.6891E+01
   4.450  0.1270E+01  0.6904E+01
   4.460  0.1266E+01  0.6917E+01
   4.470  0.1263E+01  0.6929E+01
   4.480  0.1260E+01  0.6942E+01
   4.490  0.1257E+01  0.6955E+01
   4.500  0.1254E+01  0.6967E+01
   4.510  0.1251E+01  0.6980E+01
   4.520  0.1249E+01  0.6992E+01
   4.530  0.1247E+01  0.7005E+01
   4.540  0.1257E+01  0.7017E+01
   4.550  0.1277E+01  0.7030E+01
   4.560  0.1292E+01  0.7043E+01
   4.570  0.1302E+01  0.7056E+01
   4.580  0.1305E+01  0.7069E+01
   4.590  0.1301E+01  0.7082E+01
   4.600  0.1292E+01  0.7095E+01
   4.610  0.1282E+01  0.7108E+01
   4.620  0.1273E+01  0.7120E+01
   4.630  0.1264E+01  0.7133E+01
   4.640  0.1253E+01  0.7146E+01
   4.650  0.1242E+01  0.7158E+01
   4.660  0.1236E+01  0.7171E+01
   4.670  0.1231E+01  0.7183E+01
   4.680  0.1226E+01  0.7195E+01
   4.690  0.1221E+01  0.7207E+01
   4.700  0.1216E+01  0.7220E+01
   4.710  0.1211E+01  0.7232E+01
   4.720  0.1205E+01  0.7244E+01
   4.730  0.1200E+01  0.7256E+01
   4.740  0.1194E+01  0.7268E+01
   4.750  0.1188E+01  0.7280E+01
   4.760  0.1181E+01  0.7292E+01
   4.770  0.1175E+01  0.7303E+01
   4.780  0.1168E+01  0.7315E+01
   4.790  0.1171E+01  0.7327E+01
   4.800  0.1177E+01  0.7338E+01
   4.810  0.1185E+01  0.7350E+01
   4.820  0.1186E+01  0.7362E+01
   4.830  0.1182E+01  0.7374E+01
   4.840  0.1177E+01  0.7386E+01
   4.850  0.1170E+01  0.7397E+01
   4.860  0.1162E+01  0.7409E+01
   4.870  0.1152E+01  0.7421E+01
   4.880  0.1141E+01  0.7432E+01
   4.890  0.1135E+01  0.7444E+01
   4.900  0.1127E+01  0.7455E+01
   4.910  0.1118E+01  0.7466E+01
   4.920  0.1104E+01  0.7477E+01
   4.930  0.1084E+01  0.7488E+01
   4.940  0.1062E+01  0.7499E+01
   4.950  0.1039E+01  0.7509E+01
   4.960  0.1015E+01  0.7520E+01
   4.970  0.9874E+00  0.7530E+01
   4.980  0.9595E+00  0.7539E+01
   4.990  0.9311E+00  0.7549E+01
   5.000  0.9027E+00  0.7558E+01
   5.010  0.8767E+00  0.7567E+01
   5.020  0.8536E+00  0.7576E+01
   5.030  0.8334E+00  0.7584E+01
   5.040  0.8161E+00  0.7592E+01
   5.050  0.8013E+00  0.7600E+01
   5.060  0.7872E+00  0.7608E+01
   5.070  0.7733E+00  0.7616E+01
   5.080  0.7597E+00  0.7624E+01
   5.090  0.7464E+00  0.7631E+01
   5.100  0.7334E+00  0.7639E+01
   5.110  0.7208E+00  0.7646E+01
   5.120  0.7084E+00  0.7653E+01
   5.130  0.6963E+00  0.7660E+01
   5.140  0.6845E+00  0.7667E+01
   5.150  0.6730E+00  0.7674E+01
   5.160  0.6618E+00  0.7680E+01
   5.170  0.6508E+00  0.7687E+01
   5.180  0.6402E+00  0.7694E+01
   5.190  0.6298E+00  0.7700E+01
   5.200  0.6148E+00  0.7706E+01
   5.210  0.5976E+00  0.7712E+01
   5.220  0.5935E+00  0.7718E+01
   5.230  0.5925E+00  0.7724E+01
   5.240  0.5913E+00  0.7730E+01
   5.250  0.5897E+00  0.7736E+01
   5.260  0.5879E+00  0.7742E+01
   5.270  0.5858E+00  0.7748E+01
   5.280  0.5792E+00  0.7753E+01
   5.290  0.5713E+00  0.7759E+01
   5.300  0.5634E+00  0.7765E+01
   5.310  0.5555E+00  0.7770E+01
   5.320  0.5477E+00  0.7776E+01
   5.330  0.5478E+00  0.7781E+01
   5.340  0.5532E+00  0.7787E+01
   5.350  0.5537E+00  0.7792E+01
   5.360  0.5512E+00  0.7798E+01
   5.370  0.5432E+00  0.7803E+01
   5.380  0.5297E+00  0.7809E+01
   5.390  0.5107E+00  0.7814E+01
   5.400  0.4869E+00  0.7819E+01
   5.410  0.4793E+00  0.7824E+01
   5.420  0.4715E+00  0.7829E+01
   5.430  0.4634E+00  0.7833E+01
   5.440  0.4549E+00  0.7838E+01
   5.450  0.4461E+00  0.7842E+01
   5.460  0.4366E+00  0.7847E+01
   5.470  0.4267E+00  0.7851E+01
   5.480  0.4161E+00  0.7855E+01
   5.490  0.4051E+00  0.7859E+01
   5.500  0.3955E+00  0.7863E+01
   5.510  0.3879E+00  0.7867E+01
   5.520  0.3804E+00  0.7871E+01
   5.530  0.3760E+00  0.7875E+01
   5.540  0.3739E+00  0.7879E+01
   5.550  0.3716E+00  0.7882E+01
   5.560  0.3693E+00  0.7886E+01
   5.570  0.3668E+00  0.7890E+01
   5.580  0.3643E+00  0.7893E+01
   5.590  0.3617E+00  0.7897E+01
   5.600  0.3588E+00  0.7901E+01
   5.610  0.3531E+00  0.7904E+01
   5.620  0.3473E+00  0.7908E+01
   5.630  0.3414E+00  0.7911E+01
   5.640  0.3353E+00  0.7915E+01
   5.650  0.3292E+00  0.7918E+01
   5.660  0.3229E+00  0.7921E+01
   5.670  0.3166E+00  0.7924E+01
   5.680  0.3102E+00  0.7928E+01
   5.690  0.3037E+00  0.7931E+01
   5.700  0.2972E+00  0.7934E+01
   5.710  0.2905E+00  0.7937E+01
   5.720  0.2838E+00  0.7939E+01
   5.730  0.2769E+00  0.7942E+01
   5.740  0.2700E+00  0.7945E+01
   5.750  0.2630E+00  0.7948E+01
   5.760  0.2558E+00  0.7950E+01
   5.770  0.2482E+00  0.7953E+01
   5.780  0.2399E+00  0.7955E+01
   5.790  0.2316E+00  0.7958E+01
   5.800  0.2232E+00  0.7960E+01
   5.810  0.2147E+00  0.7962E+01
   5.820  0.2062E+00  0.7964E+01
   5.830  0.1976E+00  0.7966E+01
   5.840  0.1889E+00  0.7968E+01
   5.850  0.1802E+00  0.7970E+01
   5.860  0.1745E+00  0.7972E+01
   5.870  0.1692E+00  0.7973E+01
   5.880  0.1639E+00  0.7975E+01
   5.890  0.1585E+00  0.7977E+01
   5.900  0.1532E+00  0.7978E+01
   5.910  0.1478E+00  0.7980E+01
   5.920  0.1424E+00  0.7981E+01
   5.930  0.1369E+00  0.7983E+01
   5.940  0.1315E+00  0.7984E+01
   5.950  0.1260E+00  0.7985E+01
   5.960  0.1205E+00  0.7986E+01
   5.970  0.1149E+00  0.7988E+01
   5.980  0.1094E+00  0.7989E+01
   5.990  0.1038E+00  0.7990E+01
   6.000  0.9819E-01  0.7991E+01
   6.010  0.9257E-01  0.7992E+01
   6.020  0.8691E-01  0.7993E+01
   6.030  0.8124E-01  0.7993E+01
   6.040  0.7554E-01  0.7994E+01
   6.050  0.6981E-01  0.7995E+01
   6.060  0.6406E-01  0.7996E+01
   6.070  0.1051E+00  0.7997E+01
   6.080  0.9735E-01  0.7998E+01
   6.090  0.4352E-01  0.7998E+01
   6.100  0.3637E-01  0.7999E+01
   6.110  0.2987E-01  0.7999E+01
   6.120  0.2401E-01  0.7999E+01
   6.130  0.1878E-01  0.8000E+01
   6.140  0.1420E-01  0.8000E+01
   6.150  0.1025E-01  0.8000E+01
   6.160  0.6950E-02  0.8000E+01
   6.170  0.4287E-02  0.8000E+01
   6.180  0.2264E-02  0.8000E+01
   6.190  0.8815E-03  0.8000E+01
   6.200  0.1392E-03  0.8000E+01
   6.210  0.0000E+00  0.8000E+01
   6.220  0.0000E+00  0.8000E+01
   6.230  0.0000E+00  0.8000E+01
   6.240  0.0000E+00  0.8000E+01
   6.250  0.0000E+00  0.8000E+01
   6.260  0.0000E+00  0.8000E+01
   6.270  0.0000E+00  0.8000E+01
   6.280  0.0000E+00  0.8000E+01
   6.290  0.0000E+00  0.8000E+01
   6.300  0.0000E+00  0.8000E+01
   6.310  0.0000E+00  0.8000E+01
   6.320  0.0000E+00  0.8000E+01
   6.330  0.0000E+00  0.8000E+01
   6.340  0.0000E+00  0.8000E+01
   6.350  0.0000E+00  0.8000E+01
   6.360  0.0000E+00  0.8000E+01
   6.370  0.0000E+00  0.8000E+01
   6.380  0.0000E+00  0.8000E+01
   6.390  0.0000E+00  0.8000E+01
   6.400  0.0000E+00  0.8000E+01
   6.410  0.0000E+00  0.8000E+01
   6.420  0.0000E+00  0.8000E+01
   6.430  0.0000E+00  0.8000E+01
   6.440  0.0000E+00  0.8000E+01
   6.450  0.0000E+00  0.8000E+01
   6.460  0.0000E+00  0.8000E+01
   6.470  0.0000E+00  0.8000E+01
   6.480  0.0000E+00  0.8000E+01
   6.490  0.0000E+00  0.8000E+01
   6.500  0.0000E+00  0.8000E+01
   6.510  0.0000E+00  0.8000E+01
   6.520  0.0000E+00  0.8000E+01
   6.530  0.0000E+00  0.8000E+01
   6.540  0.0000E+00  0.8000E+01
   6.550  0.0000E+00  0.8000E+01
   6.560  0.0000E+00  0.8000E+01
   6.570  0.0000E+00  0.8000E+01
   6.580  0.0000E+00  0.8000E+01
   6.590  0.0000E+00  0.8000E+01
   6.600  0.0000E+00  0.8000E+01
   6.610  0.0000E+00  0.8000E+01
   6.620  0.0000E+00  0.8000E+01
   6.630  0.0000E+00  0.8000E+01
   6.640  0.0000E+00  0.8000E+01
   6.650  0.0000E+00  0.8000E+01
   6.660  0.0000E+00  0.8000E+01
   6.670  0.0000E+00  0.8000E+01
   6.680  0.0000E+00  0.8000E+01
   6.690  0.0000E+00  0.8000E+01
   6.700  0.0000E+00  0.8000E+01
   6.710  0.5632E-04  0.8000E+01
   6.720  0.5047E-03  0.8000E+01
   6.730  0.1401E-02  0.8000E+01
   6.740  0.2744E-02  0.8000E+01
   6.750  0.4535E-02  0.8000E+01
   6.760  0.6774E-02  0.8000E+01
   6.770  0.9461E-02  0.8000E+01
   6.780  0.1259E-01  0.8000E+01
   6.790  0.1618E-01  0.8000E+01
   6.800  0.2021E-01  0.8001E+01
   6.810  0.2468E-01  0.8001E+01
   6.820  0.2961E-01  0.8001E+01
   6.830  0.3498E-01  0.8001E+01
   6.840  0.4081E-01  0.8002E+01
   6.850  0.4788E-01  0.8002E+01
   6.860  0.5668E-01  0.8003E+01
   6.870  0.6721E-01  0.8003E+01
   6.880  0.7949E-01  0.8004E+01
   6.890  0.9355E-01  0.8005E+01
   6.900  0.1094E+00  0.8006E+01
   6.910  0.1200E+00  0.8007E+01
   6.920  0.1243E+00  0.8008E+01
   6.930  0.1290E+00  0.8010E+01
   6.940  0.1340E+00  0.8011E+01
   6.950  0.1393E+00  0.8012E+01
   6.960  0.1449E+00  0.8014E+01
   6.970  0.1509E+00  0.8015E+01
   6.980  0.1572E+00  0.8017E+01
   6.990  0.1638E+00  0.8018E+01
   7.000  0.1708E+00  0.8020E+01
   7.010  0.1780E+00  0.8022E+01
   7.020  0.1856E+00  0.8024E+01
   7.030  0.1935E+00  0.8026E+01
   7.040  0.1989E+00  0.8027E+01
   7.050  0.2040E+00  0.8030E+01
   7.060  0.2093E+00  0.8032E+01
   7.070  0.2147E+00  0.8034E+01
   7.080  0.2201E+00  0.8036E+01
   7.090  0.2256E+00  0.8038E+01
   7.100  0.2312E+00  0.8040E+01
   7.110  0.2368E+00  0.8043E+01
   7.120  0.2424E+00  0.8045E+01
   7.130  0.2481E+00  0.8048E+01
   7.140  0.2539E+00  0.8050E+01
   7.150  0.2596E+00  0.8053E+01
   7.160  0.2655E+00  0.8055E+01
   7.170  0.2714E+00  0.8058E+01
   7.180  0.2773E+00  0.8061E+01
   7.190  0.2833E+00  0.8064E+01
   7.200  0.2893E+00  0.8066E+01
   7.210  0.2954E+00  0.8069E+01
   7.220  0.3015E+00  0.8072E+01
   7.230  0.3075E+00  0.8075E+01
   7.240  0.3136E+00  0.8078E+01
   7.250  0.3197E+00  0.8082E+01
   7.260  0.3258E+00  0.8085E+01
   7.270  0.3319E+00  0.8088E+01
   7.280  0.3380E+00  0.8091E+01
   7.290  0.3442E+00  0.8095E+01
   7.300  0.3511E+00  0.8098E+01
   7.310  0.3589E+00  0.8102E+01
   7.320  0.3677E+00  0.8106E+01
   7.330  0.3779E+00  0.8109E+01
   7.340  0.3893E+00  0.8113E+01
   7.350  0.4019E+00  0.8117E+01
   7.360  0.4157E+00  0.8121E+01
   7.370  0.4297E+00  0.8125E+01
   7.380  0.4389E+00  0.8130E+01
   7.390  0.4483E+00  0.8134E+01
   7.400  0.4582E+00  0.8139E+01
   7.410  0.4686E+00  0.8143E+01
   7.420  0.4793E+00  0.8148E+01
   7.430  0.4906E+00  0.8153E+01
   7.440  0.5023E+00  0.8158E+01
   7.450  0.5144E+00  0.8163E+01
   7.460  0.5270E+00  0.8168E+01
   7.470  0.6300E+00  0.8174E+01
   7.480  0.6063E+00  0.8180E+01
   7.490  0.5087E+00  0.8185E+01
   7.500  0.5132E+00  0.8191E+01
   7.510  0.5175E+00  0.8196E+01
   7.520  0.5218E+00  0.8201E+01
   7.530  0.5259E+00  0.8206E+01
   7.540  0.5300E+00  0.8211E+01
   7.550  0.5341E+00  0.8217E+01
   7.560  0.5390E+00  0.8222E+01
   7.570  0.5437E+00  0.8228E+01
   7.580  0.5481E+00  0.8233E+01
   7.590  0.5525E+00  0.8238E+01
   7.600  0.5568E+00  0.8244E+01
   7.610  0.5612E+00  0.8250E+01
   7.620  0.5656E+00  0.8255E+01
   7.630  0.5700E+00  0.8261E+01
   7.640  0.5744E+00  0.8267E+01
   7.650  0.5789E+00  0.8272E+01
   7.660  0.5834E+00  0.8278E+01
   7.670  0.5878E+00  0.8284E+01
   7.680  0.5924E+00  0.8290E+01
   7.690  0.5970E+00  0.8296E+01
   7.700  0.6017E+00  0.8302E+01
   7.710  0.6065E+00  0.8308E+01
   7.720  0.6114E+00  0.8314E+01
   7.730  0.6163E+00  0.8320E+01
   7.740  0.6212E+00  0.8326E+01
   7.750  0.6262E+00  0.8333E+01
   7.760  0.6312E+00  0.8339E+01
   7.770  0.6364E+00  0.8345E+01
   7.780  0.6418E+00  0.8352E+01
   7.790  0.6475E+00  0.8358E+01
   7.800  0.6535E+00  0.8365E+01
   7.810  0.6597E+00  0.8371E+01
   7.820  0.6661E+00  0.8378E+01
   7.830  0.6726E+00  0.8384E+01
   7.840  0.6793E+00  0.8391E+01
   7.850  0.6861E+00  0.8398E+01
   7.860  0.6931E+00  0.8405E+01
   7.870  0.7002E+00  0.8412E+01
   7.880  0.7092E+00  0.8419E+01
   7.890  0.7492E+00  0.8426E+01
   7.900  0.7868E+00  0.8434E+01
   7.910  0.7892E+00  0.8442E+01
   7.920  0.7910E+00  0.8450E+01
   7.930  0.7920E+00  0.8458E+01
   7.940  0.7925E+00  0.8466E+01
   7.950  0.7922E+00  0.8474E+01
   7.960  0.7920E+00  0.8481E+01
   7.970  0.8012E+00  0.8489E+01
   7.980  0.8104E+00  0.8497E+01
   7.990  0.8197E+00  0.8506E+01
   8.000  0.8291E+00  0.8514E+01
   8.010  0.8373E+00  0.8522E+01
   8.020  0.8454E+00  0.8531E+01
   8.030  0.8540E+00  0.8539E+01
   8.040  0.8632E+00  0.8548E+01
   8.050  0.8732E+00  0.8556E+01
   8.060  0.8837E+00  0.8565E+01
   8.070  0.8945E+00  0.8574E+01
   8.080  0.9058E+00  0.8583E+01
   8.090  0.9175E+00  0.8592E+01
   8.100  0.9296E+00  0.8601E+01
   8.110  0.9421E+00  0.8611E+01
   8.120  0.9550E+00  0.8620E+01
   8.130  0.9683E+00  0.8630E+01
   8.140  0.9821E+00  0.8640E+01
   8.150  0.9972E+00  0.8650E+01
   8.160  0.1014E+01  0.8660E+01
   8.170  0.1032E+01  0.8670E+01
   8.180  0.1052E+01  0.8680E+01
   8.190  0.1074E+01  0.8691E+01
   8.200  0.1102E+01  0.8702E+01
   8.210  0.1134E+01  0.8713E+01
   8.220  0.1172E+01  0.8724E+01
   8.230  0.1219E+01  0.8736E+01
   8.240  0.1274E+01  0.8749E+01
   8.250  0.1339E+01  0.8762E+01
   8.260  0.1413E+01  0.8776E+01
   8.270  0.1582E+01  0.8791E+01
   8.280  0.1637E+01  0.8807E+01
   8.290  0.1564E+01  0.8823E+01
   8.300  0.1565E+01  0.8839E+01
   8.310  0.1577E+01  0.8854E+01
   8.320  0.1588E+01  0.8870E+01
   8.330  0.1599E+01  0.8886E+01
   8.340  0.1612E+01  0.8902E+01
   8.350  0.1626E+01  0.8918E+01
   8.360  0.1639E+01  0.8935E+01
   8.370  0.1652E+01  0.8951E+01
   8.380  0.1665E+01  0.8968E+01
   8.390  0.1676E+01  0.8984E+01
   8.400  0.1687E+01  0.9001E+01
   8.410  0.1696E+01  0.9018E+01
   8.420  0.1705E+01  0.9035E+01
   8.430  0.1717E+01  0.9052E+01
   8.440  0.1733E+01  0.9069E+01
   8.450  0.1748E+01  0.9087E+01
   8.460  0.1763E+01  0.9104E+01
   8.470  0.1778E+01  0.9122E+01
   8.480  0.1792E+01  0.9140E+01
   8.490  0.1822E+01  0.9158E+01
   8.500  0.1973E+01  0.9177E+01
   8.510  0.2072E+01  0.9197E+01
   8.520  0.2057E+01  0.9218E+01
   8.530  0.2026E+01  0.9238E+01
   8.540  0.2026E+01  0.9259E+01
   8.550  0.2024E+01  0.9279E+01
   8.560  0.2023E+01  0.9299E+01
   8.570  0.2024E+01  0.9319E+01
   8.580  0.2023E+01  0.9340E+01
   8.590  0.2022E+01  0.9360E+01
   8.600  0.2018E+01  0.9380E+01
   8.610  0.2014E+01  0.9400E+01
   8.620  0.2007E+01  0.9420E+01
   8.630  0.1999E+01  0.9440E+01
   8.640  0.1990E+01  0.9460E+01
   8.650  0.1979E+01  0.9480E+01
   8.660  0.1966E+01  0.9500E+01
   8.670  0.1953E+01  0.9519E+01
   8.680  0.1939E+01  0.9539E+01
   8.690  0.1923E+01  0.9558E+01
   8.700  0.1907E+01  0.9577E+01
   8.710  0.1890E+01  0.9596E+01
   8.720  0.1872E+01  0.9615E+01
   8.730  0.1853E+01  0.9634E+01
   8.740  0.1833E+01  0.9652E+01
   8.750  0.1813E+01  0.9670E+01
   8.760  0.1792E+01  0.9688E+01
   8.770  0.1771E+01  0.9706E+01
   8.780  0.1749E+01  0.9724E+01
   8.790  0.1726E+01  0.9741E+01
   8.800  0.1677E+01  0.9758E+01
   8.810  0.1565E+01  0.9774E+01
   8.820  0.1529E+01  0.9790E+01
   8.830  0.1495E+01  0.9805E+01
   8.840  0.1461E+01  0.9820E+01
   8.850  0.1431E+01  0.9834E+01
   8.860  0.1405E+01  0.9848E+01
   8.870  0.1379E+01  0.9862E+01
   8.880  0.1353E+01  0.9876E+01
   8.890  0.1329E+01  0.9889E+01
   8.900  0.1305E+01  0.9903E+01
   8.910  0.1281E+01  0.9916E+01
   8.920  0.1258E+01  0.9928E+01
   8.930  0.1236E+01  0.9941E+01
   8.940  0.1213E+01  0.9953E+01
   8.950  0.1190E+01  0.9965E+01
   8.960  0.1167E+01  0.9977E+01
   8.970  0.1145E+01  0.9988E+01
   8.980  0.1124E+01  0.1000E+02
   8.990  0.1103E+01  0.1001E+02
   9.000  0.1082E+01  0.1002E+02
   9.010  0.1061E+01  0.1003E+02
   9.020  0.1040E+01  0.1004E+02
   9.030  0.1020E+01  0.1005E+02
   9.040  0.1005E+01  0.1006E+02
   9.050  0.9902E+00  0.1007E+02
   9.060  0.9757E+00  0.1008E+02
   9.070  0.9617E+00  0.1009E+02
   9.080  0.9480E+00  0.1010E+02
   9.090  0.9348E+00  0.1011E+02
   9.100  0.9219E+00  0.1012E+02
   9.110  0.9094E+00  0.1013E+02
   9.120  0.8973E+00  0.1014E+02
   9.130  0.8856E+00  0.1015E+02
   9.140  0.8743E+00  0.1016E+02
   9.150  0.8634E+00  0.1017E+02
   9.160  0.8528E+00  0.1017E+02
   9.170  0.8424E+00  0.1018E+02
   9.180  0.8332E+00  0.1019E+02
   9.190  0.8258E+00  0.1020E+02
   9.200  0.8172E+00  0.1021E+02
   9.210  0.8093E+00  0.1022E+02
   9.220  0.8022E+00  0.1022E+02
   9.230  0.7959E+00  0.1023E+02
   9.240  0.7904E+00  0.1024E+02
   9.250  0.7857E+00  0.1025E+02
   9.260  0.7814E+00  0.1026E+02
   9.270  0.7777E+00  0.1026E+02
   9.280  0.7744E+00  0.1027E+02
   9.290  0.7767E+00  0.1028E+02
   9.300  0.7848E+00  0.1029E+02
   9.310  0.7947E+00  0.1029E+02
   9.320  0.8066E+00  0.1030E+02
   9.330  0.8202E+00  0.1031E+02
   9.340  0.8358E+00  0.1032E+02
   9.350  0.8532E+00  0.1033E+02
   9.360  0.8725E+00  0.1034E+02
   9.370  0.8935E+00  0.1034E+02
   9.380  0.9198E+00  0.1035E+02
   9.390  0.9662E+00  0.1036E+02
   9.400  0.1035E+01  0.1037E+02
   9.410  0.1097E+01  0.1038E+02
   9.420  0.1154E+01  0.1040E+02
   9.430  0.1204E+01  0.1041E+02
   9.440  0.1278E+01  0.1042E+02
   9.450  0.1307E+01  0.1043E+02
   9.460  0.1362E+01  0.1045E+02
   9.470  0.1413E+01  0.1046E+02
   9.480  0.1462E+01  0.1047E+02
   9.490  0.1508E+01  0.1049E+02
   9.500  0.1558E+01  0.1050E+02
   9.510  0.1609E+01  0.1052E+02
   9.520  0.1650E+01  0.1054E+02
   9.530  0.1687E+01  0.1055E+02
   9.540  0.1718E+01  0.1057E+02
   9.550  0.1743E+01  0.1059E+02
   9.560  0.1761E+01  0.1060E+02
   9.570  0.1766E+01  0.1062E+02
   9.580  0.1746E+01  0.1064E+02
   9.590  0.1755E+01  0.1066E+02
   9.600  0.1785E+01  0.1067E+02
   9.610  0.1817E+01  0.1069E+02
   9.620  0.1852E+01  0.1071E+02
   9.630  0.1889E+01  0.1073E+02
   9.640  0.1927E+01  0.1075E+02
   9.650  0.1968E+01  0.1077E+02
   9.660  0.2010E+01  0.1079E+02
   9.670  0.2054E+01  0.1081E+02
   9.680  0.2100E+01  0.1083E+02
   9.690  0.2162E+01  0.1085E+02
   9.700  0.2230E+01  0.1087E+02
   9.710  0.2297E+01  0.1090E+02
   9.720  0.2326E+01  0.1092E+02
   9.730  0.2273E+01  0.1094E+02
   9.740  0.2213E+01  0.1096E+02
   9.750  0.2143E+01  0.1099E+02
   9.760  0.2077E+01  0.1101E+02
   9.770  0.2038E+01  0.1103E+02
   9.780  0.2005E+01  0.1105E+02
   9.790  0.1982E+01  0.1107E+02
   9.800  0.1986E+01  0.1109E+02
   9.810  0.1987E+01  0.1111E+02
   9.820  0.1985E+01  0.1113E+02
   9.830  0.1981E+01  0.1115E+02
   9.840  0.1973E+01  0.1117E+02
   9.850  0.1962E+01  0.1119E+02
   9.860  0.1949E+01  0.1121E+02
   9.870  0.1932E+01  0.1123E+02
   9.880  0.1914E+01  0.1124E+02
   9.890  0.1892E+01  0.1126E+02
   9.900  0.1874E+01  0.1128E+02
   9.910  0.1862E+01  0.1130E+02
   9.920  0.1852E+01  0.1132E+02
   9.930  0.1837E+01  0.1134E+02
   9.940  0.1828E+01  0.1136E+02
   9.950  0.1803E+01  0.1137E+02
   9.960  0.1792E+01  0.1139E+02
   9.970  0.1782E+01  0.1141E+02
   9.980  0.1772E+01  0.1143E+02
   9.990  0.1761E+01  0.1145E+02
  10.000  0.1751E+01  0.1146E+02
  10.010  0.1740E+01  0.1148E+02
  10.020  0.1729E+01  0.1150E+02
  10.030  0.1718E+01  0.1152E+02
  10.040  0.1707E+01  0.1153E+02
  10.050  0.1696E+01  0.1155E+02
  10.060  0.1685E+01  0.1157E+02
  10.070  0.1674E+01  0.1158E+02
  10.080  0.1663E+01  0.1160E+02
  10.090  0.1652E+01  0.1162E+02
  10.100  0.1640E+01  0.1163E+02
  10.110  0.1629E+01  0.1165E+02
  10.120  0.1618E+01  0.1167E+02
  10.130  0.1606E+01  0.1168E+02
  10.140  0.1591E+01  0.1170E+02
  10.150  0.1575E+01  0.1171E+02
  10.160  0.1560E+01  0.1173E+02
  10.170  0.1545E+01  0.1174E+02
  10.180  0.1529E+01  0.1176E+02
  10.190  0.1514E+01  0.1178E+02
  10.200  0.1498E+01  0.1179E+02
  10.210  0.1483E+01  0.1181E+02
  10.220  0.1468E+01  0.1182E+02
  10.230  0.1452E+01  0.1183E+02
  10.240  0.1436E+01  0.1185E+02
  10.250  0.1421E+01  0.1186E+02
  10.260  0.1406E+01  0.1188E+02
  10.270  0.1437E+01  0.1189E+02
  10.280  0.1500E+01  0.1191E+02
  10.290  0.1371E+01  0.1192E+02
  10.300  0.1350E+01  0.1193E+02
  10.310  0.1337E+01  0.1195E+02
  10.320  0.1330E+01  0.1196E+02
  10.330  0.1322E+01  0.1197E+02
  10.340  0.1317E+01  0.1199E+02
  10.350  0.1309E+01  0.1200E+02
  10.360  0.1302E+01  0.1201E+02
  10.370  0.1298E+01  0.1203E+02
  10.380  0.1295E+01  0.1204E+02
  10.390  0.1294E+01  0.1205E+02
  10.400  0.1292E+01  0.1207E+02
  10.410  0.1288E+01  0.1208E+02
  10.420  0.1287E+01  0.1209E+02
  10.430  0.1278E+01  0.1210E+02
  10.440  0.1243E+01  0.1212E+02
  10.450  0.1202E+01  0.1213E+02
  10.460  0.1212E+01  0.1214E+02
  10.470  0.1204E+01  0.1215E+02
  10.480  0.1189E+01  0.1217E+02
  10.490  0.1175E+01  0.1218E+02
  10.500  0.1162E+01  0.1219E+02
  10.510  0.1150E+01  0.1220E+02
  10.520  0.1139E+01  0.1221E+02
  10.530  0.1130E+01  0.1222E+02
  10.540  0.1121E+01  0.1223E+02
  10.550  0.1113E+01  0.1225E+02
  10.560  0.1106E+01  0.1226E+02
  10.570  0.1101E+01  0.1227E+02
  10.580  0.1096E+01  0.1228E+02
  10.590  0.1092E+01  0.1229E+02
  10.600  0.1090E+01  0.1230E+02
  10.610  0.1088E+01  0.1231E+02
  10.620  0.1088E+01  0.1232E+02
  10.630  0.1090E+01  0.1233E+02
  10.640  0.1093E+01  0.1234E+02
  10.650  0.1096E+01  0.1235E+02
  10.660  0.1105E+01  0.1237E+02
  10.670  0.1115E+01  0.1238E+02
  10.680  0.1126E+01  0.1239E+02
  10.690  0.1138E+01  0.1240E+02
  10.700  0.1152E+01  0.1241E+02
  10.710  0.1156E+01  0.1242E+02
  10.720  0.1153E+01  0.1243E+02
  10.730  0.1162E+01  0.1245E+02
  10.740  0.1185E+01  0.1246E+02
  10.750  0.1222E+01  0.1247E+02
  10.760  0.1269E+01  0.1248E+02
  10.770  0.1323E+01  0.1249E+02
  10.780  0.1361E+01  0.1251E+02
  10.790  0.1354E+01  0.1252E+02
  10.800  0.1337E+01  0.1254E+02
  10.810  0.1310E+01  0.1255E+02
  10.820  0.1274E+01  0.1256E+02
  10.830  0.1229E+01  0.1257E+02
  10.840  0.1184E+01  0.1259E+02
  10.850  0.1163E+01  0.1260E+02
  10.860  0.1149E+01  0.1261E+02
  10.870  0.1135E+01  0.1262E+02
  10.880  0.1121E+01  0.1263E+02
  10.890  0.1106E+01  0.1264E+02
  10.900  0.1092E+01  0.1265E+02
  10.910  0.1078E+01  0.1267E+02
  10.920  0.1064E+01  0.1268E+02
  10.930  0.1049E+01  0.1269E+02
  10.940  0.1035E+01  0.1270E+02
  10.950  0.1020E+01  0.1271E+02
  10.960  0.1008E+01  0.1272E+02
  10.970  0.9973E+00  0.1273E+02
  10.980  0.9876E+00  0.1274E+02
  10.990  0.9788E+00  0.1275E+02
  11.000  0.9711E+00  0.1276E+02
  11.010  0.9640E+00  0.1277E+02
  11.020  0.9550E+00  0.1278E+02
  11.030  0.9469E+00  0.1279E+02
  11.040  0.9413E+00  0.1279E+02
  11.050  0.9389E+00  0.1280E+02
  11.060  0.9373E+00  0.1281E+02
  11.070  0.9594E+00  0.1282E+02
  11.080  0.1035E+01  0.1283E+02
  11.090  0.1119E+01  0.1284E+02
  11.100  0.1224E+01  0.1286E+02
  11.110  0.1312E+01  0.1287E+02
  11.120  0.1258E+01  0.1288E+02
  11.130  0.1135E+01  0.1289E+02
  11.140  0.1116E+01  0.1290E+02
  11.150  0.1116E+01  0.1292E+02
  11.160  0.1117E+01  0.1293E+02
  11.170  0.1118E+01  0.1294E+02
  11.180  0.1120E+01  0.1295E+02
  11.190  0.1123E+01  0.1296E+02
  11.200  0.1126E+01  0.1297E+02
  11.210  0.1141E+01  0.1298E+02
  11.220  0.1158E+01  0.1299E+02
  11.230  0.1178E+01  0.1301E+02
  11.240  0.1197E+01  0.1302E+02
  11.250  0.1211E+01  0.1303E+02
  11.260  0.1222E+01  0.1304E+02
  11.270  0.1229E+01  0.1305E+02
  11.280  0.1234E+01  0.1307E+02
  11.290  0.1235E+01  0.1308E+02
  11.300  0.1233E+01  0.1309E+02
  11.310  0.1228E+01  0.1310E+02
  11.320  0.1220E+01  0.1312E+02
  11.330  0.1214E+01  0.1313E+02
  11.340  0.1211E+01  0.1314E+02
  11.350  0.1209E+01  0.1315E+02
  11.360  0.1207E+01  0.1316E+02
  11.370  0.1205E+01  0.1318E+02
  11.380  0.1203E+01  0.1319E+02
  11.390  0.1201E+01  0.1320E+02
  11.400  0.1199E+01  0.1321E+02
  11.410  0.1198E+01  0.1322E+02
  11.420  0.1196E+01  0.1324E+02
  11.430  0.1195E+01  0.1325E+02
  11.440  0.1194E+01  0.1326E+02
  11.450  0.1193E+01  0.1327E+02
  11.460  0.1192E+01  0.1328E+02
  11.470  0.1191E+01  0.1330E+02
  11.480  0.1190E+01  0.1331E+02
  11.490  0.1189E+01  0.1332E+02
  11.500  0.1187E+01  0.1333E+02
  11.510  0.1185E+01  0.1334E+02
  11.520  0.1183E+01  0.1336E+02
  11.530  0.1181E+01  0.1337E+02
  11.540  0.1179E+01  0.1338E+02
  11.550  0.1177E+01  0.1339E+02
  11.560  0.1175E+01  0.1340E+02
  11.570  0.1173E+01  0.1341E+02
  11.580  0.1171E+01  0.1343E+02
  11.590  0.1169E+01  0.1344E+02
  11.600  0.1168E+01  0.1345E+02
  11.610  0.1167E+01  0.1346E+02
  11.620  0.1168E+01  0.1347E+02
  11.630  0.1169E+01  0.1348E+02
  11.640  0.1169E+01  0.1350E+02
  11.650  0.1169E+01  0.1351E+02
  11.660  0.1168E+01  0.1352E+02
  11.670  0.1167E+01  0.1353E+02
  11.680  0.1166E+01  0.1354E+02
  11.690  0.1164E+01  0.1355E+02
  11.700  0.1163E+01  0.1357E+02
  11.710  0.1164E+01  0.1358E+02
  11.720  0.1165E+01  0.1359E+02
  11.730  0.1167E+01  0.1360E+02
  11.740  0.1168E+01  0.1361E+02
  11.750  0.1170E+01  0.1362E+02
  11.760  0.1171E+01  0.1364E+02
  11.770  0.1173E+01  0.1365E+02
  11.780  0.1174E+01  0.1366E+02
  11.790  0.1175E+01  0.1367E+02
  11.800  0.1177E+01  0.1368E+02
  11.810  0.1178E+01  0.1369E+02
  11.820  0.1179E+01  0.1371E+02
  11.830  0.1180E+01  0.1372E+02
  11.840  0.1181E+01  0.1373E+02
  11.850  0.1182E+01  0.1374E+02
  11.860  0.1182E+01  0.1375E+02
  11.870  0.1181E+01  0.1377E+02
  11.880  0.1180E+01  0.1378E+02
  11.890  0.1178E+01  0.1379E+02
  11.900  0.1176E+01  0.1380E+02
  11.910  0.1175E+01  0.1381E+02
  11.920  0.1172E+01  0.1382E+02
  11.930  0.1170E+01  0.1384E+02
  11.940  0.1167E+01  0.1385E+02
  11.950  0.1165E+01  0.1386E+02
  11.960  0.1165E+01  0.1387E+02
  11.970  0.1165E+01  0.1388E+02
  11.980  0.1162E+01  0.1389E+02
  11.990  0.1157E+01  0.1391E+02
  12.000  0.1152E+01  0.1392E+02
  12.010  0.1146E+01  0.1393E+02
  12.020  0.1138E+01  0.1394E+02
  12.030  0.1130E+01  0.1395E+02
  12.040  0.1121E+01  0.1396E+02
  12.050  0.1110E+01  0.1397E+02
  12.060  0.1098E+01  0.1399E+02
  12.070  0.1085E+01  0.1400E+02
  12.080  0.1071E+01  0.1401E+02
  12.090  0.1055E+01  0.1402E+02
  12.100  0.1038E+01  0.1403E+02
  12.110  0.1022E+01  0.1404E+02
  12.120  0.1010E+01  0.1405E+02
  12.130  0.9997E+00  0.1406E+02
  12.140  0.9896E+00  0.1407E+02
  12.150  0.9804E+00  0.1408E+02
  12.160  0.9729E+00  0.1409E+02
  12.170  0.9668E+00  0.1410E+02
  12.180  0.9623E+00  0.1411E+02
  12.190  0.9592E+00  0.1412E+02
  12.200  0.9577E+00  0.1413E+02
  12.210  0.9577E+00  0.1414E+02
  12.220  0.9592E+00  0.1415E+02
  12.230  0.9410E+00  0.1416E+02
  12.240  0.9283E+00  0.1416E+02
  12.250  0.9191E+00  0.1417E+02
  12.260  0.9091E+00  0.1418E+02
  12.270  0.9293E+00  0.1419E+02
  12.280  0.9288E+00  0.1420E+02
  12.290  0.8717E+00  0.1421E+02
  12.300  0.8687E+00  0.1422E+02
  12.310  0.8660E+00  0.1423E+02
  12.320  0.8630E+00  0.1424E+02
  12.330  0.8586E+00  0.1425E+02
  12.340  0.8565E+00  0.1425E+02
  12.350  0.8561E+00  0.1426E+02
  12.360  0.8561E+00  0.1427E+02
  12.370  0.8563E+00  0.1428E+02
  12.380  0.8567E+00  0.1429E+02
  12.390  0.8573E+00  0.1430E+02
  12.400  0.8583E+00  0.1431E+02
  12.410  0.8598E+00  0.1431E+02
  12.420  0.8619E+00  0.1432E+02
  12.430  0.8644E+00  0.1433E+02
  12.440  0.8671E+00  0.1434E+02
  12.450  0.8701E+00  0.1435E+02
  12.460  0.8776E+00  0.1436E+02
  12.470  0.8869E+00  0.1437E+02
  12.480  0.8980E+00  0.1437E+02
  12.490  0.9086E+00  0.1438E+02
  12.500  0.9191E+00  0.1439E+02
  12.510  0.9295E+00  0.1440E+02
  12.520  0.9397E+00  0.1441E+02
  12.530  0.9498E+00  0.1442E+02
  12.540  0.9598E+00  0.1443E+02
  12.550  0.9697E+00  0.1444E+02
  12.560  0.9794E+00  0.1445E+02
  12.570  0.9891E+00  0.1446E+02
  12.580  0.9985E+00  0.1447E+02
  12.590  0.1008E+01  0.1448E+02
  12.600  0.1017E+01  0.1449E+02
  12.610  0.1026E+01  0.1450E+02
  12.620  0.1035E+01  0.1451E+02
  12.630  0.1044E+01  0.1452E+02
  12.640  0.1053E+01  0.1453E+02
  12.650  0.1062E+01  0.1454E+02
  12.660  0.1071E+01  0.1455E+02
  12.670  0.1080E+01  0.1456E+02
  12.680  0.1089E+01  0.1457E+02
  12.690  0.1098E+01  0.1459E+02
  12.700  0.1106E+01  0.1460E+02
  12.710  0.1107E+01  0.1461E+02
  12.720  0.1107E+01  0.1462E+02
  12.730  0.1110E+01  0.1463E+02
  12.740  0.1114E+01  0.1464E+02
  12.750  0.1118E+01  0.1465E+02
  12.760  0.1122E+01  0.1466E+02
  12.770  0.1125E+01  0.1467E+02
  12.780  0.1128E+01  0.1469E+02
  12.790  0.1130E+01  0.1470E+02
  12.800  0.1132E+01  0.1471E+02
  12.810  0.1133E+01  0.1472E+02
  12.820  0.1134E+01  0.1473E+02
  12.830  0.1135E+01  0.1474E+02
  12.840  0.1135E+01  0.1475E+02
  12.850  0.1134E+01  0.1476E+02
  12.860  0.1131E+01  0.1478E+02
  12.870  0.1128E+01  0.1479E+02
  12.880  0.1125E+01  0.1480E+02
  12.890  0.1123E+01  0.1481E+02
  12.900  0.1122E+01  0.1482E+02
  12.910  0.1122E+01  0.1483E+02
  12.920  0.1122E+01  0.1484E+02
  12.930  0.1122E+01  0.1485E+02
  12.940  0.1124E+01  0.1487E+02
  12.950  0.1125E+01  0.1488E+02
  12.960  0.1122E+01  0.1489E+02
  12.970  0.1120E+01  0.1490E+02
  12.980  0.1117E+01  0.1491E+02
  12.990  0.1115E+01  0.1492E+02
  13.000  0.1113E+01  0.1493E+02
  13.010  0.1111E+01  0.1494E+02
  13.020  0.1110E+01  0.1496E+02
  13.030  0.1108E+01  0.1497E+02
  13.040  0.1106E+01  0.1498E+02
  13.050  0.1101E+01  0.1499E+02
  13.060  0.1096E+01  0.1500E+02
  13.070  0.1090E+01  0.1501E+02
  13.080  0.1085E+01  0.1502E+02
  13.090  0.1080E+01  0.1503E+02
  13.100  0.1074E+01  0.1504E+02
  13.110  0.1068E+01  0.1505E+02
  13.120  0.1062E+01  0.1506E+02
  13.130  0.1056E+01  0.1507E+02
  13.140  0.1050E+01  0.1509E+02
  13.150  0.1043E+01  0.1510E+02
  13.160  0.1036E+01  0.1511E+02
  13.170  0.1029E+01  0.1512E+02
  13.180  0.1022E+01  0.1513E+02
  13.190  0.1015E+01  0.1514E+02
  13.200  0.1008E+01  0.1515E+02
  13.210  0.9998E+00  0.1516E+02
  13.220  0.9918E+00  0.1517E+02
  13.230  0.9836E+00  0.1518E+02
  13.240  0.9751E+00  0.1519E+02
  13.250  0.9665E+00  0.1520E+02
  13.260  0.9574E+00  0.1521E+02
  13.270  0.9476E+00  0.1522E+02
  13.280  0.9379E+00  0.1523E+02
  13.290  0.9282E+00  0.1523E+02
  13.300  0.9184E+00  0.1524E+02
  13.310  0.9083E+00  0.1525E+02
  13.320  0.8981E+00  0.1526E+02
  13.330  0.8877E+00  0.1527E+02
  13.340  0.8767E+00  0.1528E+02
  13.350  0.8654E+00  0.1529E+02
  13.360  0.8540E+00  0.1530E+02
  13.370  0.8424E+00  0.1531E+02
  13.380  0.8312E+00  0.1531E+02
  13.390  0.8203E+00  0.1532E+02
  13.400  0.8098E+00  0.1533E+02
  13.410  0.7997E+00  0.1534E+02
  13.420  0.7900E+00  0.1535E+02
  13.430  0.7806E+00  0.1535E+02
  13.440  0.7717E+00  0.1536E+02
  13.450  0.7633E+00  0.1537E+02
  13.460  0.7554E+00  0.1538E+02
  13.470  0.7479E+00  0.1538E+02
  13.480  0.7408E+00  0.1539E+02
  13.490  0.7340E+00  0.1540E+02
  13.500  0.7276E+00  0.1541E+02
  13.510  0.7214E+00  0.1541E+02
  13.520  0.7148E+00  0.1542E+02
  13.530  0.7076E+00  0.1543E+02
  13.540  0.7006E+00  0.1544E+02
  13.550  0.6940E+00  0.1544E+02
  13.560  0.6876E+00  0.1545E+02
  13.570  0.6815E+00  0.1546E+02
  13.580  0.6756E+00  0.1546E+02
  13.590  0.6701E+00  0.1547E+02
  13.600  0.6649E+00  0.1548E+02
  13.610  0.6599E+00  0.1548E+02
  13.620  0.6552E+00  0.1549E+02
  13.630  0.6508E+00  0.1550E+02
  13.640  0.6467E+00  0.1550E+02
  13.650  0.6429E+00  0.1551E+02
  13.660  0.6396E+00  0.1552E+02
  13.670  0.6369E+00  0.1552E+02
  13.680  0.6338E+00  0.1553E+02
  13.690  0.6304E+00  0.1553E+02
  13.700  0.6269E+00  0.1554E+02
  13.710  0.6216E+00  0.1555E+02
  13.720  0.6142E+00  0.1555E+02
  13.730  0.6075E+00  0.1556E+02
  13.740  0.6004E+00  0.1557E+02
  13.750  0.5901E+00  0.1557E+02
  13.760  0.5784E+00  0.1558E+02
  13.770  0.5653E+00  0.1558E+02
  13.780  0.5507E+00  0.1559E+02
  13.790  0.5347E+00  0.1559E+02
  13.800  0.5173E+00  0.1560E+02
  13.810  0.5074E+00  0.1560E+02
  13.820  0.5028E+00  0.1561E+02
  13.830  0.4987E+00  0.1561E+02
  13.840  0.4950E+00  0.1562E+02
  13.850  0.4919E+00  0.1562E+02
  13.860  0.4893E+00  0.1563E+02
  13.870  0.4877E+00  0.1563E+02
  13.880  0.4863E+00  0.1564E+02
  13.890  0.4852E+00  0.1564E+02
  13.900  0.4842E+00  0.1565E+02
  13.910  0.4833E+00  0.1565E+02
  13.920  0.4825E+00  0.1566E+02
  13.930  0.4818E+00  0.1566E+02
  13.940  0.4812E+00  0.1567E+02
  13.950  0.4807E+00  0.1567E+02
  13.960  0.4802E+00  0.1568E+02
  13.970  0.4799E+00  0.1568E+02
  13.980  0.4796E+00  0.1569E+02
  13.990  0.4793E+00  0.1569E+02
  14.000  0.4786E+00  0.1570E+02
  14.010  0.4774E+00  0.1570E+02
  14.020  0.4757E+00  0.1571E+02
  14.030  0.4736E+00  0.1571E+02
  14.040  0.4736E+00  0.1572E+02
  14.050  0.4841E+00  0.1572E+02
  14.060  0.4900E+00  0.1573E+02
  14.070  0.4915E+00  0.1573E+02
  14.080  0.4885E+00  0.1574E+02
  14.090  0.4810E+00  0.1574E+02
  14.100  0.4691E+00  0.1574E+02
  14.110  0.4526E+00  0.1575E+02
  14.120  0.4317E+00  0.1575E+02
  14.130  0.4063E+00  0.1576E+02
  14.140  0.3770E+00  0.1576E+02
  14.150  0.3514E+00  0.1577E+02
  14.160  0.3315E+00  0.1577E+02
  14.170  0.3172E+00  0.1577E+02
  14.180  0.3047E+00  0.1578E+02
  14.190  0.2929E+00  0.1578E+02
  14.200  0.2818E+00  0.1578E+02
  14.210  0.2715E+00  0.1578E+02
  14.220  0.2619E+00  0.1579E+02
  14.230  0.2531E+00  0.1579E+02
  14.240  0.2450E+00  0.1579E+02
  14.250  0.2395E+00  0.1579E+02
  14.260  0.2378E+00  0.1580E+02
  14.270  0.2361E+00  0.1580E+02
  14.280  0.2344E+00  0.1580E+02
  14.290  0.2327E+00  0.1580E+02
  14.300  0.2310E+00  0.1581E+02
  14.310  0.2293E+00  0.1581E+02
  14.320  0.2276E+00  0.1581E+02
  14.330  0.2260E+00  0.1581E+02
  14.340  0.2243E+00  0.1581E+02
  14.350  0.2227E+00  0.1582E+02
  14.360  0.2210E+00  0.1582E+02
  14.370  0.2194E+00  0.1582E+02
  14.380  0.2178E+00  0.1582E+02
  14.390  0.2162E+00  0.1583E+02
  14.400  0.2146E+00  0.1583E+02
  14.410  0.2130E+00  0.1583E+02
  14.420  0.2114E+00  0.1583E+02
  14.430  0.2099E+00  0.1583E+02
  14.440  0.2083E+00  0.1584E+02
  14.450  0.2067E+00  0.1584E+02
  14.460  0.2052E+00  0.1584E+02
  14.470  0.2037E+00  0.1584E+02
  14.480  0.2022E+00  0.1584E+02
  14.490  0.2006E+00  0.1585E+02
  14.500  0.1991E+00  0.1585E+02
  14.510  0.1976E+00  0.1585E+02
  14.520  0.1962E+00  0.1585E+02
  14.530  0.1947E+00  0.1585E+02
  14.540  0.1932E+00  0.1586E+02
  14.550  0.1918E+00  0.1586E+02
  14.560  0.1904E+00  0.1586E+02
  14.570  0.1890E+00  0.1586E+02
  14.580  0.1876E+00  0.1586E+02
  14.590  0.1863E+00  0.1587E+02
  14.600  0.1850E+00  0.1587E+02
  14.610  0.1837E+00  0.1587E+02
  14.620  0.1824E+00  0.1587E+02
  14.630  0.1812E+00  0.1587E+02
  14.640  0.1799E+00  0.1588E+02
  14.650  0.1787E+00  0.1588E+02
  14.660  0.1775E+00  0.1588E+02
  14.670  0.1764E+00  0.1588E+02
  14.680  0.1752E+00  0.1588E+02
  14.690  0.1741E+00  0.1588E+02
  14.700  0.1730E+00  0.1589E+02
  14.710  0.1719E+00  0.1589E+02
  14.720  0.1709E+00  0.1589E+02
  14.730  0.1698E+00  0.1589E+02
  14.740  0.1688E+00  0.1589E+02
  14.750  0.1678E+00  0.1589E+02
  14.760  0.1669E+00  0.1590E+02
  14.770  0.1659E+00  0.1590E+02
  14.780  0.1650E+00  0.1590E+02
  14.790  0.1641E+00  0.1590E+02
  14.800  0.1632E+00  0.1590E+02
  14.810  0.1624E+00  0.1590E+02
  14.820  0.1616E+00  0.1591E+02
  14.830  0.1613E+00  0.1591E+02
  14.840  0.1612E+00  0.1591E+02
  14.850  0.1611E+00  0.1591E+02
  14.860  0.1610E+00  0.1591E+02
  14.870  0.1609E+00  0.1591E+02
  14.880  0.1608E+00  0.1592E+02
  14.890  0.1607E+00  0.1592E+02
  14.900  0.1605E+00  0.1592E+02
  14.910  0.1604E+00  0.1592E+02
  14.920  0.1602E+00  0.1592E+02
  14.930  0.1601E+00  0.1592E+02
  14.940  0.1599E+00  0.1593E+02
  14.950  0.1597E+00  0.1593E+02
  14.960  0.1595E+00  0.1593E+02
  14.970  0.1593E+00  0.1593E+02
  14.980  0.1591E+00  0.1593E+02
  14.990  0.1589E+00  0.1593E+02
  15.000  0.1587E+00  0.1593E+02
  15.010  0.1585E+00  0.1594E+02
  15.020  0.1582E+00  0.1594E+02
  15.030  0.1580E+00  0.1594E+02
  15.040  0.1577E+00  0.1594E+02
  15.050  0.1571E+00  0.1594E+02
  15.060  0.1565E+00  0.1594E+02
  15.070  0.1561E+00  0.1595E+02
  15.080  0.1561E+00  0.1595E+02
  15.090  0.1565E+00  0.1595E+02
  15.100  0.1571E+00  0.1595E+02
  15.110  0.1581E+00  0.1595E+02
  15.120  0.1594E+00  0.1595E+02
  15.130  0.1613E+00  0.1596E+02
  15.140  0.1656E+00  0.1596E+02
  15.150  0.1689E+00  0.1596E+02
  15.160  0.1711E+00  0.1596E+02
  15.170  0.1724E+00  0.1596E+02
  15.180  0.1726E+00  0.1596E+02
  15.190  0.1718E+00  0.1597E+02
  15.200  0.1700E+00  0.1597E+02
  15.210  0.1672E+00  0.1597E+02
  15.220  0.1634E+00  0.1597E+02
  15.230  0.1586E+00  0.1597E+02
  15.240  0.1527E+00  0.1597E+02
  15.250  0.1459E+00  0.1598E+02
  15.260  0.1380E+00  0.1598E+02
  15.270  0.1291E+00  0.1598E+02
  15.280  0.1192E+00  0.1598E+02
  15.290  0.1081E+00  0.1598E+02
  15.300  0.9586E-01  0.1598E+02
  15.310  0.9072E-01  0.1598E+02
  15.320  0.8520E-01  0.1598E+02
  15.330  0.7930E-01  0.1598E+02
  15.340  0.7302E-01  0.1598E+02
  15.350  0.6636E-01  0.1599E+02
  15.360  0.5933E-01  0.1599E+02
  15.370  0.5191E-01  0.1599E+02
  15.380  0.4412E-01  0.1599E+02
  15.390  0.3990E-01  0.1599E+02
  15.400  0.3907E-01  0.1599E+02
  15.410  0.3824E-01  0.1599E+02
  15.420  0.3743E-01  0.1599E+02
  15.430  0.3662E-01  0.1599E+02
  15.440  0.3582E-01  0.1599E+02
  15.450  0.3503E-01  0.1599E+02
  15.460  0.3425E-01  0.1599E+02
  15.470  0.3348E-01  0.1599E+02
  15.480  0.3271E-01  0.1599E+02
  15.490  0.3196E-01  0.1599E+02
  15.500  0.3121E-01  0.1599E+02
  15.510  0.3047E-01  0.1599E+02
  15.520  0.2974E-01  0.1599E+02
  15.530  0.2902E-01  0.1599E+02
  15.540  0.2831E-01  0.1599E+02
  15.550  0.2761E-01  0.1599E+02
  15.560  0.2692E-01  0.1599E+02
  15.570  0.2623E-01  0.1599E+02
  15.580  0.2556E-01  0.1599E+02
  15.590  0.2489E-01  0.1599E+02
  15.600  0.2423E-01  0.1599E+02
  15.610  0.2358E-01  0.1599E+02
  15.620  0.2294E-01  0.1599E+02
  15.630  0.2231E-01  0.1599E+02
  15.640  0.2169E-01  0.1599E+02
  15.650  0.2108E-01  0.1600E+02
  15.660  0.2047E-01  0.1600E+02
  15.670  0.1987E-01  0.1600E+02
  15.680  0.1929E-01  0.1600E+02
  15.690  0.1871E-01  0.1600E+02
  15.700  0.1814E-01  0.1600E+02
  15.710  0.1758E-01  0.1600E+02
  15.720  0.1702E-01  0.1600E+02
  15.730  0.1648E-01  0.1600E+02
  15.740  0.1595E-01  0.1600E+02
  15.750  0.1542E-01  0.1600E+02
  15.760  0.1490E-01  0.1600E+02
  15.770  0.1440E-01  0.1600E+02
  15.780  0.1390E-01  0.1600E+02
  15.790  0.1341E-01  0.1600E+02
  15.800  0.1292E-01  0.1600E+02
  15.810  0.1245E-01  0.1600E+02
  15.820  0.1199E-01  0.1600E+02
  15.830  0.1153E-01  0.1600E+02
  15.840  0.1109E-01  0.1600E+02
  15.850  0.1065E-01  0.1600E+02
  15.860  0.1022E-01  0.1600E+02
  15.870  0.9799E-02  0.1600E+02
  15.880  0.9387E-02  0.1600E+02
  15.890  0.8985E-02  0.1600E+02
  15.900  0.8591E-02  0.1600E+02
  15.910  0.8207E-02  0.1600E+02
  15.920  0.7831E-02  0.1600E+02
  15.930  0.7463E-02  0.1600E+02
  15.940  0.7105E-02  0.1600E+02
  15.950  0.6756E-02  0.1600E+02
  15.960  0.6415E-02  0.1600E+02
  15.970  0.6083E-02  0.1600E+02
  15.980  0.5760E-02  0.1600E+02
  15.990  0.5446E-02  0.1600E+02
  16.000  0.5140E-02  0.1600E+02
