# E (eV)  dosup(E)   dosdw(E)  pdosup(E)  pdosdw(E)
   5.000  0.125E-01  0.894E-02  0.124E-01  0.891E-02
   5.100  0.165E-01  0.137E-01  0.165E-01  0.137E-01
   5.200  0.208E-01  0.173E-01  0.208E-01  0.172E-01
   5.300  0.259E-01  0.222E-01  0.258E-01  0.221E-01
   5.400  0.289E-01  0.265E-01  0.289E-01  0.264E-01
   5.500  0.287E-01  0.288E-01  0.287E-01  0.288E-01
   5.600  0.316E-01  0.287E-01  0.316E-01  0.286E-01
   5.700  0.347E-01  0.314E-01  0.346E-01  0.313E-01
   5.800  0.379E-01  0.342E-01  0.378E-01  0.341E-01
   5.900  0.413E-01  0.372E-01  0.412E-01  0.371E-01
   6.000  0.437E-01  0.403E-01  0.436E-01  0.402E-01
   6.100  0.468E-01  0.423E-01  0.467E-01  0.421E-01
   6.200  0.493E-01  0.447E-01  0.492E-01  0.446E-01
   6.300  0.511E-01  0.466E-01  0.510E-01  0.465E-01
   6.400  0.534E-01  0.478E-01  0.533E-01  0.477E-01
   6.500  0.566E-01  0.495E-01  0.565E-01  0.493E-01
   6.600  0.602E-01  0.517E-01  0.601E-01  0.516E-01
   6.700  0.641E-01  0.544E-01  0.639E-01  0.542E-01
   6.800  0.682E-01  0.572E-01  0.681E-01  0.571E-01
   6.900  0.727E-01  0.602E-01  0.726E-01  0.600E-01
   7.000  0.761E-01  0.634E-01  0.759E-01  0.632E-01
   7.100  0.807E-01  0.652E-01  0.805E-01  0.650E-01
   7.200  0.869E-01  0.672E-01  0.867E-01  0.670E-01
   7.300  0.932E-01  0.697E-01  0.930E-01  0.694E-01
   7.400  0.996E-01  0.726E-01  0.994E-01  0.723E-01
   7.500  0.107E+00  0.755E-01  0.107E+00  0.752E-01
   7.600  0.116E+00  0.783E-01  0.116E+00  0.779E-01
   7.700  0.127E+00  0.813E-01  0.127E+00  0.809E-01
   7.800  0.140E+00  0.844E-01  0.140E+00  0.841E-01
   7.900  0.157E+00  0.879E-01  0.156E+00  0.875E-01
   8.000  0.181E+00  0.919E-01  0.181E+00  0.915E-01
   8.100  0.243E+00  0.963E-01  0.242E+00  0.958E-01
   8.200  0.455E+00  0.101E+00  0.454E+00  0.100E+00
   8.300  0.531E+00  0.106E+00  0.530E+00  0.105E+00
   8.400  0.625E+00  0.111E+00  0.623E+00  0.110E+00
   8.500  0.672E+00  0.116E+00  0.671E+00  0.115E+00
   8.600  0.749E+00  0.122E+00  0.747E+00  0.121E+00
   8.700  0.859E+00  0.129E+00  0.857E+00  0.128E+00
   8.800  0.118E+01  0.138E+00  0.118E+01  0.137E+00
   8.900  0.110E+01  0.146E+00  0.110E+01  0.145E+00
   9.000  0.779E+00  0.155E+00  0.777E+00  0.154E+00
   9.100  0.664E+00  0.166E+00  0.662E+00  0.165E+00
   9.200  0.569E+00  0.181E+00  0.567E+00  0.179E+00
   9.300  0.459E+00  0.197E+00  0.458E+00  0.195E+00
   9.400  0.315E+00  0.216E+00  0.313E+00  0.214E+00
   9.500  0.316E+00  0.255E+00  0.315E+00  0.252E+00
   9.600  0.174E+01  0.352E+00  0.173E+01  0.348E+00
   9.700  0.203E+01  0.355E+00  0.202E+01  0.351E+00
   9.800  0.127E+01  0.363E+00  0.126E+01  0.360E+00
   9.900  0.104E+01  0.357E+00  0.104E+01  0.353E+00
  10.000  0.933E+00  0.355E+00  0.930E+00  0.351E+00
  10.100  0.909E+00  0.370E+00  0.903E+00  0.365E+00
  10.200  0.110E+01  0.382E+00  0.109E+01  0.377E+00
  10.300  0.133E+01  0.407E+00  0.132E+01  0.402E+00
  10.400  0.193E+01  0.497E+00  0.191E+01  0.490E+00
  10.500  0.177E+01  0.638E+00  0.176E+01  0.629E+00
  10.600  0.104E+01  0.673E+00  0.102E+01  0.663E+00
  10.700  0.632E+00  0.647E+00  0.621E+00  0.637E+00
  10.800  0.503E+00  0.479E+00  0.493E+00  0.470E+00
  10.900  0.445E+00  0.474E+00  0.435E+00  0.464E+00
  11.000  0.437E+00  0.276E+00  0.428E+00  0.270E+00
  11.100  0.502E+00  0.236E+00  0.494E+00  0.229E+00
  11.200  0.547E+00  0.228E+00  0.540E+00  0.221E+00
  11.300  0.665E+00  0.200E+00  0.659E+00  0.192E+00
  11.400  0.102E+01  0.749E+00  0.101E+01  0.730E+00
  11.500  0.147E+01  0.129E+01  0.146E+01  0.126E+01
  11.600  0.206E+01  0.134E+01  0.206E+01  0.131E+01
  11.700  0.194E+01  0.141E+01  0.194E+01  0.137E+01
  11.800  0.260E+01  0.138E+01  0.259E+01  0.133E+01
  11.900  0.259E+01  0.128E+01  0.259E+01  0.123E+01
  12.000  0.173E+01  0.112E+01  0.172E+01  0.108E+01
  12.100  0.113E+01  0.105E+01  0.112E+01  0.101E+01
  12.200  0.101E+01  0.112E+01  0.100E+01  0.107E+01
  12.300  0.913E+00  0.135E+01  0.903E+00  0.129E+01
  12.400  0.832E+00  0.147E+01  0.823E+00  0.139E+01
  12.500  0.794E+00  0.116E+01  0.786E+00  0.110E+01
  12.600  0.840E+00  0.955E+00  0.832E+00  0.901E+00
  12.700  0.857E+00  0.897E+00  0.850E+00  0.850E+00
  12.800  0.863E+00  0.699E+00  0.857E+00  0.661E+00
  12.900  0.559E+00  0.291E+00  0.554E+00  0.256E+00
  13.000  0.259E+00  0.237E+00  0.256E+00  0.205E+00
  13.100  0.144E+00  0.205E+00  0.140E+00  0.179E+00
  13.200  0.144E+00  0.227E+00  0.139E+00  0.207E+00
  13.300  0.144E+00  0.174E+00  0.137E+00  0.173E+00
  13.400  0.142E+00  0.190E+00  0.133E+00  0.190E+00
  13.500  0.144E+00  0.241E+00  0.133E+00  0.240E+00
  13.600  0.159E+00  0.287E+00  0.139E+00  0.286E+00
  13.700  0.157E+00  0.389E+00  0.138E+00  0.388E+00
  13.800  0.159E+00  0.424E+00  0.137E+00  0.423E+00
  13.900  0.159E+00  0.533E+00  0.135E+00  0.531E+00
  14.000  0.158E+00  0.708E+00  0.132E+00  0.705E+00
  14.100  0.152E+00  0.841E+00  0.125E+00  0.838E+00
  14.200  0.150E+00  0.897E+00  0.121E+00  0.893E+00
  14.300  0.148E+00  0.105E+01  0.118E+00  0.105E+01
  14.400  0.147E+00  0.126E+01  0.114E+00  0.126E+01
  14.500  0.147E+00  0.142E+01  0.112E+00  0.141E+01
  14.600  0.147E+00  0.159E+01  0.110E+00  0.159E+01
  14.700  0.146E+00  0.132E+01  0.108E+00  0.132E+01
  14.800  0.145E+00  0.977E+00  0.105E+00  0.976E+00
  14.900  0.144E+00  0.134E+01  0.102E+00  0.134E+01
  15.000  0.148E+00  0.193E+01  0.102E+00  0.193E+01
  15.100  0.140E+00  0.467E+01  0.970E-01  0.467E+01
  15.200  0.140E+00  0.151E+01  0.952E-01  0.150E+01
  15.300  0.140E+00  0.112E+01  0.938E-01  0.110E+01
  15.400  0.141E+00  0.104E+01  0.927E-01  0.103E+01
  15.500  0.138E+00  0.534E+00  0.899E-01  0.528E+00
  15.600  0.135E+00  0.313E+00  0.870E-01  0.308E+00
  15.700  0.134E+00  0.263E+00  0.843E-01  0.256E+00
  15.800  0.131E+00  0.248E+00  0.809E-01  0.238E+00
  15.900  0.128E+00  0.250E+00  0.775E-01  0.236E+00
  16.000  0.126E+00  0.246E+00  0.743E-01  0.228E+00
  16.100  0.123E+00  0.239E+00  0.710E-01  0.217E+00
  16.200  0.121E+00  0.231E+00  0.681E-01  0.205E+00
  16.300  0.120E+00  0.224E+00  0.655E-01  0.194E+00
  16.400  0.118E+00  0.214E+00  0.628E-01  0.181E+00
  16.500  0.123E+00  0.211E+00  0.632E-01  0.173E+00
  16.600  0.113E+00  0.199E+00  0.580E-01  0.162E+00
  16.700  0.112E+00  0.192E+00  0.556E-01  0.154E+00
  16.800  0.110E+00  0.187E+00  0.533E-01  0.147E+00
  16.900  0.107E+00  0.184E+00  0.510E-01  0.141E+00
  17.000  0.105E+00  0.181E+00  0.488E-01  0.136E+00
  17.100  0.103E+00  0.178E+00  0.466E-01  0.131E+00
  17.200  0.101E+00  0.174E+00  0.443E-01  0.126E+00
  17.300  0.987E-01  0.171E+00  0.422E-01  0.121E+00
  17.400  0.986E-01  0.167E+00  0.408E-01  0.115E+00
  17.500  0.966E-01  0.161E+00  0.389E-01  0.108E+00
  17.600  0.950E-01  0.155E+00  0.372E-01  0.101E+00
  17.700  0.935E-01  0.150E+00  0.358E-01  0.950E-01
  17.800  0.903E-01  0.154E+00  0.338E-01  0.934E-01
  17.900  0.866E-01  0.142E+00  0.315E-01  0.851E-01
  18.000  0.831E-01  0.139E+00  0.293E-01  0.810E-01
  18.100  0.820E-01  0.135E+00  0.284E-01  0.767E-01
  18.200  0.876E-01  0.132E+00  0.278E-01  0.727E-01
  18.300  0.714E-01  0.128E+00  0.224E-01  0.689E-01
  18.400  0.588E-01  0.125E+00  0.205E-01  0.652E-01
  18.500  0.561E-01  0.122E+00  0.192E-01  0.616E-01
  18.600  0.534E-01  0.119E+00  0.179E-01  0.581E-01
  18.700  0.507E-01  0.115E+00  0.166E-01  0.546E-01
  18.800  0.479E-01  0.114E+00  0.153E-01  0.523E-01
  18.900  0.449E-01  0.111E+00  0.140E-01  0.492E-01
  19.000  0.417E-01  0.108E+00  0.126E-01  0.463E-01
  19.100  0.387E-01  0.110E+00  0.114E-01  0.467E-01
  19.200  0.358E-01  0.103E+00  0.103E-01  0.417E-01
  19.300  0.332E-01  0.965E-01  0.923E-02  0.374E-01
  19.400  0.307E-01  0.906E-01  0.831E-02  0.344E-01
  19.500  0.284E-01  0.937E-01  0.748E-02  0.327E-01
  19.600  0.262E-01  0.676E-01  0.673E-02  0.257E-01
  19.700  0.242E-01  0.639E-01  0.606E-02  0.237E-01
  19.800  0.234E-01  0.603E-01  0.548E-02  0.217E-01
  19.900  0.185E-01  0.568E-01  0.496E-02  0.198E-01
  20.000  0.295E-01  0.532E-01  0.133E-01  0.179E-01
  20.100  0.526E-01  0.490E-01  0.324E-01  0.159E-01
